/*--------------------------------*- C++ -*----------------------------------*\
  =========                 |
  \\      /  F ield         | OpenFOAM: The Open Source CFD Toolbox
   \\    /   O peration     | Website:  https://openfoam.org
    \\  /    A nd           | Version:  10
     \\/     M anipulation  |
\*---------------------------------------------------------------------------*/
FoamFile
{
    format      ascii;
    class       volScalarField;
    location    "6.5";
    object      ddt0(T);
}
// * * * * * * * * * * * * * * * * * * * * * * * * * * * * * * * * * * * * * //

dimensions      [0 0 -1 1 0 0 0];

internalField   nonuniform List<scalar> 
10000
(
5579.56
2525.83
2551.13
2597.15
2607.27
2609.33
2609.88
2610.07
2610.15
2610.19
2610.22
2610.24
2610.27
2610.29
2610.31
2610.32
2610.34
2610.36
2610.37
2610.39
2610.4
2610.41
2610.42
2610.43
2610.44
2610.45
2610.46
2610.47
2610.47
2610.48
2610.48
2610.49
2610.49
2610.49
2610.49
2610.5
2610.5
2610.5
2610.5
2610.5
2610.49
2610.49
2610.49
2610.49
2610.49
2610.48
2610.48
2610.48
2610.47
2610.47
2610.47
2610.46
2610.46
2610.46
2610.45
2610.45
2610.45
2610.44
2610.44
2610.43
2610.43
2610.43
2610.42
2610.42
2610.42
2610.41
2610.41
2610.41
2610.41
2610.4
2610.4
2610.4
2610.4
2610.4
2610.39
2610.39
2610.39
2610.39
2610.39
2610.39
2610.38
2610.38
2610.38
2610.38
2610.38
2610.38
2610.38
2610.38
2610.38
2610.37
2610.37
2610.37
2610.37
2610.36
2610.33
2610.12
2608.81
2601.9
2586.82
2963.88
2938.82
-780.573
-589.919
-479.942
-456.335
-451.776
-450.651
-450.26
-450.086
-449.985
-449.908
-449.842
-449.78
-449.721
-449.664
-449.611
-449.56
-449.511
-449.466
-449.423
-449.383
-449.346
-449.312
-449.28
-449.252
-449.226
-449.202
-449.181
-449.163
-449.146
-449.132
-449.12
-449.111
-449.103
-449.097
-449.093
-449.091
-449.09
-449.091
-449.093
-449.096
-449.101
-449.107
-449.113
-449.121
-449.129
-449.138
-449.148
-449.158
-449.168
-449.179
-449.19
-449.201
-449.212
-449.223
-449.234
-449.245
-449.256
-449.267
-449.278
-449.288
-449.298
-449.308
-449.318
-449.327
-449.336
-449.344
-449.352
-449.36
-449.368
-449.375
-449.382
-449.388
-449.394
-449.4
-449.405
-449.41
-449.415
-449.42
-449.424
-449.428
-449.432
-449.435
-449.439
-449.442
-449.445
-449.448
-449.45
-449.453
-449.455
-449.457
-449.46
-449.463
-449.473
-449.516
-449.769
-451.306
-459.339
-486.14
-415.817
2937.42
-631.989
-347.199
-208.258
-177.705
-171.552
-170.003
-169.461
-169.21
-169.054
-168.933
-168.824
-168.721
-168.623
-168.529
-168.439
-168.354
-168.273
-168.197
-168.125
-168.058
-167.996
-167.939
-167.886
-167.838
-167.794
-167.755
-167.719
-167.688
-167.661
-167.637
-167.617
-167.601
-167.587
-167.578
-167.571
-167.567
-167.565
-167.566
-167.57
-167.576
-167.583
-167.593
-167.604
-167.616
-167.63
-167.645
-167.66
-167.677
-167.694
-167.712
-167.73
-167.748
-167.767
-167.786
-167.804
-167.823
-167.841
-167.859
-167.877
-167.894
-167.911
-167.927
-167.943
-167.958
-167.973
-167.987
-168.001
-168.014
-168.026
-168.038
-168.049
-168.06
-168.07
-168.08
-168.089
-168.097
-168.105
-168.113
-168.12
-168.127
-168.133
-168.139
-168.145
-168.15
-168.155
-168.159
-168.164
-168.168
-168.171
-168.175
-168.179
-168.184
-168.193
-168.213
-168.309
-168.974
-173.027
-188.975
-173.257
2972.62
-539.717
-227.261
-79.383
-46.3624
-39.5174
-37.7383
-37.0941
-36.7796
-36.5751
-36.4093
-36.2588
-36.1163
-35.98
-35.8494
-35.7247
-35.6059
-35.4933
-35.3872
-35.2876
-35.1944
-35.1078
-35.0277
-34.954
-34.8865
-34.8252
-34.7699
-34.7204
-34.6766
-34.6383
-34.6053
-34.5775
-34.5545
-34.5362
-34.5224
-34.5128
-34.5073
-34.5054
-34.5071
-34.5121
-34.52
-34.5307
-34.5439
-34.5593
-34.5768
-34.596
-34.6168
-34.6389
-34.6622
-34.6863
-34.7112
-34.7366
-34.7624
-34.7885
-34.8146
-34.8406
-34.8665
-34.8921
-34.9173
-34.942
-34.9662
-34.9897
-35.0126
-35.0348
-35.0563
-35.0769
-35.0967
-35.1158
-35.134
-35.1513
-35.1679
-35.1836
-35.1986
-35.2127
-35.2261
-35.2388
-35.2507
-35.262
-35.2726
-35.2825
-35.2919
-35.3007
-35.309
-35.3168
-35.324
-35.3309
-35.3373
-35.3433
-35.349
-35.3543
-35.3596
-35.3653
-35.3727
-35.3848
-35.4045
-35.432
-35.534
-36.4503
-40.9926
-35.4246
2980.65
-519.788
-200.884
-50.6195
-16.8015
-9.67038
-7.76555
-7.04887
-6.68111
-6.43074
-6.2223
-6.03107
-5.84947
-5.6754
-5.50852
-5.34899
-5.19708
-5.05308
-4.91719
-4.78955
-4.67022
-4.5592
-4.45644
-4.36184
-4.27528
-4.1966
-4.12563
-4.06216
-4.00599
-3.9569
-3.91463
-3.87895
-3.84957
-3.82622
-3.80861
-3.79644
-3.78941
-3.78719
-3.78948
-3.79594
-3.80626
-3.8201
-3.83715
-3.85709
-3.87961
-3.90441
-3.93119
-3.95968
-3.98959
-4.02068
-4.0527
-4.08541
-4.1186
-4.15207
-4.18564
-4.21913
-4.25239
-4.28528
-4.31767
-4.34945
-4.38052
-4.4108
-4.44022
-4.46872
-4.49625
-4.52277
-4.54826
-4.5727
-4.59607
-4.61838
-4.63963
-4.65984
-4.67902
-4.69719
-4.71439
-4.73063
-4.74595
-4.7604
-4.774
-4.78679
-4.79882
-4.81012
-4.82073
-4.83069
-4.84004
-4.84882
-4.85705
-4.86478
-4.87205
-4.87893
-4.8856
-4.89259
-4.90148
-4.91617
-4.94314
-4.98357
-5.01757
-5.08672
-5.50054
-3.06104
2982.31
-515.926
-195.57
-44.652
-10.5544
-3.28919
-1.30575
-0.532329
-0.116809
0.177299
0.427326
0.658597
0.878871
1.09022
1.29295
1.48681
1.67145
1.84653
2.0118
2.16709
2.3123
2.44744
2.57254
2.68772
2.79312
2.88891
2.97531
3.05255
3.12089
3.18059
3.23195
3.27529
3.31093
3.3392
3.36048
3.37511
3.38349
3.38598
3.383
3.37493
3.36216
3.3451
3.32413
3.29964
3.27202
3.24162
3.20882
3.17394
3.13733
3.0993
3.06014
3.02014
2.97956
2.93865
2.89763
2.85671
2.81607
2.7759
2.73633
2.69752
2.65957
2.62259
2.58667
2.55187
2.51826
2.48589
2.45478
2.42495
2.39642
2.36919
2.34326
2.3186
2.2952
2.27303
2.25206
2.23225
2.21356
2.19594
2.17936
2.16377
2.1491
2.13533
2.1224
2.11026
2.09887
2.08818
2.07814
2.06873
2.05988
2.05155
2.04359
2.03565
2.02653
2.01286
1.98718
1.9405
1.88153
1.87286
2.13754
3.25257
2982.77
-514.961
-194.222
-43.0874
-8.86779
-1.52467
0.516732
1.33905
1.79917
2.13555
2.42628
2.69693
2.95527
3.20334
3.44135
3.669
3.88584
4.0915
4.28567
4.46813
4.63878
4.79761
4.94466
5.08004
5.20391
5.31649
5.418
5.50872
5.58894
5.65899
5.71922
5.76998
5.81167
5.84468
5.86945
5.88639
5.89596
5.89862
5.89482
5.88503
5.86971
5.84935
5.82439
5.7953
5.76252
5.72649
5.68762
5.64633
5.603
5.55801
5.5117
5.46441
5.41645
5.3681
5.31963
5.27129
5.22329
5.17585
5.12913
5.0833
5.0385
4.99484
4.95244
4.91138
4.87171
4.83351
4.7968
4.76161
4.72795
4.69583
4.66524
4.63616
4.60856
4.58242
4.55769
4.53434
4.51231
4.49155
4.47201
4.45363
4.43636
4.42014
4.40491
4.39061
4.3772
4.36461
4.35281
4.34173
4.33133
4.32155
4.31233
4.30347
4.29436
4.28299
4.26394
4.22704
4.1656
4.11402
4.27943
4.87245
2982.94
-514.618
-193.739
-42.507
-8.21662
-0.81718
1.27307
2.1403
2.64307
3.02059
3.3512
3.66049
3.95622
4.24034
4.51299
4.77378
5.02222
5.25785
5.48033
5.68942
5.885
6.06702
6.23553
6.39067
6.5326
6.66156
6.77781
6.88166
6.97345
7.05355
7.12235
7.18028
7.22778
7.26531
7.29336
7.31242
7.32302
7.32568
7.32092
7.30929
7.29133
7.26756
7.23854
7.20477
7.16677
7.12505
7.08008
7.03234
6.98227
6.9303
6.87684
6.82225
6.7669
6.71112
6.65522
6.59947
6.54413
6.48943
6.43558
6.38276
6.33113
6.28083
6.23198
6.18467
6.13898
6.09498
6.0527
6.01218
5.97342
5.93644
5.90123
5.86775
5.83599
5.8059
5.77745
5.75058
5.72524
5.70136
5.67889
5.65776
5.63791
5.61926
5.60176
5.58534
5.56993
5.55548
5.54192
5.52921
5.51727
5.50607
5.49555
5.48561
5.47603
5.46592
5.45228
5.4273
5.37758
5.30151
5.32108
5.78047
2983.01
-514.458
-193.506
-42.2126
-7.86946
-0.422377
1.71249
2.62241
3.1665
3.58417
3.95379
4.30094
4.63329
4.9527
5.25925
5.55247
5.8318
6.09673
6.34688
6.58198
6.80187
7.00652
7.19598
7.37036
7.52987
7.67476
7.80533
7.92192
8.0249
8.1147
8.19176
8.25656
8.30959
8.35138
8.38249
8.40346
8.4149
8.41738
8.41151
8.3979
8.37716
8.34989
8.3167
8.27817
8.23489
8.18742
8.13631
8.08209
8.02525
7.96629
7.90565
7.84376
7.78103
7.71783
7.6545
7.59136
7.5287
7.46677
7.40581
7.34603
7.28761
7.23069
7.17542
7.1219
7.07023
7.02046
6.97264
6.92682
6.88301
6.8412
6.80139
6.76356
6.72766
6.69367
6.66152
6.63117
6.60255
6.57559
6.55022
6.52637
6.50396
6.48292
6.46318
6.44466
6.42729
6.411
6.39573
6.3814
6.36797
6.35536
6.34353
6.33243
6.32197
6.31187
6.30079
6.28367
6.24575
6.16003
6.07528
6.57191
2983.05
-514.361
-193.356
-42.0138
-7.62477
-0.133855
2.04339
2.99455
3.57884
4.03569
4.44343
4.82756
5.19567
5.54955
5.88918
6.21402
6.52347
6.81696
7.09405
7.35447
7.59802
7.82467
8.03447
8.22754
8.4041
8.56442
8.70884
8.83772
8.95149
9.0506
9.13556
9.2069
9.26516
9.31093
9.34483
9.36748
9.37954
9.38166
9.3745
9.35876
9.33511
9.30421
9.26675
9.22338
9.17474
9.12146
9.06415
9.00341
8.93977
8.87379
8.80597
8.73678
8.66667
8.59606
8.52532
8.4548
8.38484
8.31571
8.24768
8.18096
8.11578
8.05228
7.99063
7.93094
7.87331
7.81782
7.76451
7.71343
7.66459
7.618
7.57364
7.53148
7.49149
7.45363
7.41782
7.38402
7.35216
7.32215
7.29391
7.26738
7.24246
7.21906
7.19712
7.17654
7.15724
7.13914
7.12218
7.10628
7.09138
7.0774
7.06429
7.05201
7.04051
7.02976
7.01931
7.00618
6.9765
6.88693
6.72354
7.31938
2983.08
-514.286
-193.235
-41.8488
-7.41689
0.115832
2.33399
3.32518
3.94861
4.44364
4.88854
5.3087
5.71164
6.09906
6.47086
6.82646
7.16517
7.48639
7.78965
8.07462
8.34112
8.58909
8.81857
9.02972
9.22274
9.39795
9.5557
9.69639
9.82049
9.9285
10.021
10.0985
10.1616
10.2111
10.2475
10.2716
10.284
10.2855
10.2769
10.2589
10.2322
10.1975
10.1557
10.1074
10.0533
9.99412
9.93057
9.86325
9.79279
9.71977
9.64476
9.56826
9.49078
9.41276
9.33462
9.25676
9.17952
9.10322
9.02814
8.95454
8.88262
8.81259
8.7446
8.67878
8.61524
8.55406
8.49531
8.43901
8.38519
8.33386
8.28498
8.23855
8.19451
8.15281
8.1134
8.07619
8.04112
8.0081
7.97704
7.94786
7.92046
7.89475
7.87064
7.84803
7.82684
7.80698
7.78837
7.77093
7.75459
7.73928
7.72493
7.71149
7.69893
7.68729
7.67657
7.66514
7.64074
7.54985
7.32273
8.02907
2983.1
-514.219
-193.126
-41.6973
-7.22435
0.348737
2.60655
3.63664
4.29812
4.83027
5.31126
5.76643
6.20318
6.62314
7.02616
7.41156
7.77862
8.12669
8.45526
8.76398
9.05264
9.32119
9.56966
9.7982
10.0071
10.1966
10.3671
10.5191
10.653
10.7695
10.869
10.9523
11.02
11.0728
11.1114
11.1366
11.1492
11.1499
11.1396
11.1191
11.0892
11.0506
11.0043
10.9509
10.8913
10.8262
10.7564
10.6824
10.6051
10.525
10.4428
10.359
10.2742
10.1887
10.1032
10.018
9.93356
9.85012
9.76803
9.68757
9.60898
9.53245
9.45816
9.38626
9.31686
9.25005
9.18589
9.12443
9.06568
9.00965
8.95631
8.90564
8.8576
8.81211
8.76913
8.72856
8.69033
8.65434
8.6205
8.58871
8.55887
8.53089
8.50465
8.48006
8.45702
8.43544
8.41522
8.39629
8.37855
8.36194
8.34639
8.33182
8.31823
8.30565
8.2943
8.28343
8.26239
8.17163
7.8937
8.6999
2983.12
-514.156
-193.022
-41.5532
-7.04058
0.571589
2.86785
3.93565
4.63402
5.20214
5.71812
6.20717
6.67665
7.12809
7.56127
7.97547
8.3699
8.74387
9.09684
9.42844
9.73844
10.0268
10.2935
10.5387
10.7627
10.9659
11.1486
11.3113
11.4546
11.579
11.6852
11.7738
11.8457
11.9014
11.9419
11.968
11.9804
11.9801
11.9679
11.9447
11.9114
11.8688
11.8178
11.7593
11.6941
11.623
11.5468
11.4662
11.382
11.2948
11.2054
11.1143
11.0221
10.9293
10.8364
10.7439
10.6522
10.5617
10.4726
10.3854
10.3001
10.2172
10.1366
10.0587
9.98348
9.91108
9.84158
9.775
9.71137
9.65069
9.59294
9.53809
9.48608
9.43686
9.39035
9.34647
9.30512
9.26621
9.22964
9.19529
9.16306
9.13284
9.10452
9.07799
9.05315
9.02988
9.00811
8.98772
8.96864
8.95077
8.93405
8.91841
8.90381
8.89032
8.87821
8.86731
8.8484
8.75872
8.4431
9.3301
2983.14
-514.096
-192.922
-41.4147
-6.8638
0.786156
3.11959
4.22386
4.95788
5.56077
6.11053
6.63229
7.13333
7.61511
8.07736
8.51928
8.94004
9.33891
9.71533
10.0689
10.3993
10.7066
10.9908
11.2519
11.4904
11.7066
11.9008
12.0737
12.2257
12.3576
12.4699
12.5635
12.639
12.6974
12.7395
12.7661
12.7781
12.7765
12.7622
12.7361
12.6992
12.6524
12.5967
12.5329
12.462
12.3848
12.3021
12.2148
12.1237
12.0294
11.9328
11.8344
11.7348
11.6346
11.5345
11.4347
11.3358
11.2382
11.1423
11.0482
10.9564
10.867
10.7803
10.6964
10.6154
10.5375
10.4627
10.3911
10.3226
10.2573
10.1952
10.1363
10.0803
10.0274
9.97746
9.93031
9.8859
9.84412
9.80485
9.76799
9.73341
9.70101
9.67065
9.64223
9.61563
9.59074
9.56744
9.54565
9.52527
9.50619
9.48836
9.47169
9.45613
9.44175
9.42886
9.41765
9.40002
9.31199
8.97153
9.91806
2983.16
-514.038
-192.827
-41.2816
-6.69374
0.992659
3.36193
4.50135
5.26973
5.90609
6.48835
7.04157
7.57295
8.08389
8.57403
9.04255
9.48855
9.91128
10.3101
10.6847
11.0347
11.36
11.6608
11.9371
12.1893
12.4177
12.6229
12.8052
12.9655
13.1042
13.2222
13.3202
13.3991
13.4597
13.503
13.5298
13.5411
13.5379
13.5212
13.4921
13.4514
13.4003
13.3397
13.2705
13.1938
13.1104
13.0212
12.9272
12.8291
12.7277
12.6238
12.5181
12.4112
12.3037
12.1962
12.0893
11.9832
11.8786
11.7758
11.675
11.5767
11.481
11.3881
11.2983
11.2116
11.1282
11.0482
10.9716
10.8983
10.8285
10.7621
10.6991
10.6393
10.5828
10.5294
10.479
10.4316
10.387
10.3451
10.3058
10.2689
10.2344
10.202
10.1717
10.1434
10.117
10.0922
10.0691
10.0474
10.0272
10.0083
9.99064
9.97418
9.95895
9.9453
9.93361
9.9167
9.83076
9.47719
10.4626
2983.18
-513.983
-192.735
-41.1539
-6.53056
1.19086
3.59457
4.76773
5.56909
6.23757
6.851
7.43437
7.99481
8.53366
9.05049
9.54443
10.0145
10.46
10.8803
11.2748
11.6434
11.9859
12.3024
12.593
12.8582
13.0982
13.3135
13.5047
13.6726
13.8176
13.9408
14.0428
14.1245
14.1869
14.231
14.2577
14.268
14.263
14.2437
14.2112
14.1667
14.111
14.0453
13.9706
13.888
13.7984
13.7027
13.6019
13.4968
13.3883
13.2771
13.1641
13.0499
12.9351
12.8203
12.7062
12.5931
12.4815
12.3718
12.2644
12.1596
12.0576
11.9587
11.863
11.7707
11.6819
11.5967
11.5151
11.4372
11.3629
11.2923
11.2252
11.1617
11.1016
11.0448
10.9913
10.9409
10.8935
10.849
10.8073
10.7682
10.7315
10.6973
10.6652
10.6352
10.6072
10.581
10.5566
10.5338
10.5124
10.4925
10.4739
10.4566
10.4406
10.4262
10.414
10.3974
10.314
9.95744
10.9629
2983.2
-513.93
-192.647
-41.0319
-6.37455
1.38041
3.81708
5.02254
5.85544
6.55461
7.19783
7.81
8.39817
8.96363
9.5059
10.024
10.5171
10.9842
11.4248
11.8382
12.2244
12.5831
12.9145
13.2186
13.4959
13.7467
13.9715
14.1709
14.3457
14.4966
14.6243
14.7298
14.814
14.8778
14.9222
14.9484
14.9574
14.9503
14.9282
14.8922
14.8435
14.7831
14.7123
14.632
14.5433
14.4474
14.3451
14.2374
14.1253
14.0097
13.8913
13.771
13.6494
13.5274
13.4054
13.284
13.1639
13.0454
12.929
12.815
12.7037
12.5955
12.4906
12.3891
12.2913
12.1971
12.1068
12.0204
11.9378
11.8592
11.7843
11.7133
11.646
11.5824
11.5224
11.4657
11.4125
11.3624
11.3153
11.2713
11.2299
11.1913
11.1551
11.1213
11.0897
11.0602
11.0327
11.007
10.983
10.9606
10.9398
10.9203
10.9022
10.8855
10.8704
10.8576
10.8411
10.7605
10.4095
11.4186
2983.21
-513.88
-192.564
-40.9157
-6.22596
1.56099
4.02909
5.26533
6.12828
6.8567
7.52827
8.16783
8.78237
9.37311
9.93953
10.4806
10.9954
11.483
11.9428
12.3741
12.7768
13.1508
13.4961
13.8128
14.1014
14.3622
14.5958
14.8028
14.9839
15.1399
15.2717
15.3801
15.4663
15.531
15.5755
15.6009
15.6082
15.5987
15.5735
15.5338
15.4807
15.4155
15.3393
15.2533
15.1586
15.0562
14.9472
14.8327
14.7136
14.5908
14.4651
14.3375
14.2087
14.0794
13.9502
13.8218
13.6946
13.5693
13.4461
13.3256
13.208
13.0937
12.9828
12.8756
12.7723
12.6729
12.5775
12.4863
12.3992
12.3162
12.2372
12.1623
12.0914
12.0243
11.961
11.9014
11.8452
11.7925
11.743
11.6966
11.6532
11.6125
11.5745
11.539
11.5059
11.475
11.4461
11.4192
11.3941
11.3708
11.349
11.3287
11.3099
11.2925
11.2768
11.2635
11.2469
11.1696
10.8307
11.8296
2983.23
-513.833
-192.485
-40.8055
-6.08499
1.73234
4.2303
5.49578
6.38725
7.14341
7.84186
8.50738
9.14689
9.76155
10.3508
10.9136
11.4489
11.9558
12.4336
12.8817
13.3
13.6882
14.0465
14.3749
14.674
14.944
15.1856
15.3994
15.5862
15.7468
15.8821
15.993
16.0805
16.1459
16.19
16.2142
16.2196
16.2073
16.1788
16.1351
16.0775
16.0073
15.9256
15.8337
15.7328
15.6239
15.5082
15.3868
15.2606
15.1306
14.9978
14.8629
14.7268
14.5903
14.454
14.3185
14.1844
14.0522
13.9225
13.7955
13.6716
13.5512
13.4345
13.3216
13.2129
13.1083
13.008
12.912
12.8204
12.7331
12.6502
12.5714
12.4969
12.4265
12.36
12.2974
12.2384
12.1831
12.1312
12.0825
12.037
11.9944
11.9547
11.9175
11.8829
11.8506
11.8205
11.7924
11.7663
11.742
11.7194
11.6984
11.6789
11.6609
11.6446
11.6307
11.614
11.5403
11.2186
12.196
2983.24
-513.788
-192.41
-40.7015
-5.95179
1.8943
4.42051
5.71363
6.63207
7.41444
8.13828
8.8283
9.49135
10.1286
10.7393
11.3225
11.877
12.402
12.8967
13.3605
13.7933
14.1947
14.565
14.9043
15.213
15.4914
15.7403
15.9602
16.1521
16.3166
16.4548
16.5676
16.6562
16.7216
16.765
16.7876
16.7907
16.7755
16.7433
16.6954
16.6331
16.5577
16.4705
16.3726
16.2654
16.1499
16.0275
15.8991
15.7658
15.6287
15.4886
15.3465
15.2032
15.0595
14.916
14.7735
14.6326
14.4937
14.3573
14.224
14.0939
13.9675
13.845
13.7266
13.6125
13.5028
13.3976
13.297
13.2009
13.1095
13.0225
12.9401
12.862
12.7883
12.7187
12.6531
12.5915
12.5336
12.4794
12.4285
12.381
12.3365
12.295
12.2563
12.2202
12.1866
12.1553
12.1261
12.099
12.0738
12.0504
12.0287
12.0086
11.99
11.9733
11.9588
11.942
11.8722
11.5713
12.5184
2983.26
-513.746
-192.34
-40.6036
-5.82643
2.04677
4.5996
5.91875
6.86258
7.66962
8.41733
9.13036
9.81552
10.4739
11.1047
11.707
12.2795
12.8214
13.3318
13.8102
14.2564
14.6701
15.0515
15.4006
15.718
16.0041
16.2595
16.4849
16.681
16.8489
16.9894
17.1037
17.1927
17.2578
17.3001
17.3208
17.3212
17.3028
17.2667
17.2144
17.1472
17.0665
16.9735
16.8695
16.7559
16.6339
16.5046
16.3692
16.2288
16.0845
15.9372
15.7879
15.6374
15.4865
15.3361
15.1866
15.0388
14.8933
14.7505
14.6108
14.4746
14.3422
14.214
14.0902
13.9708
13.8561
13.7461
13.6409
13.5405
13.4449
13.3541
13.268
13.1865
13.1095
13.0368
12.9685
12.9042
12.8438
12.7872
12.7343
12.6848
12.6385
12.5953
12.5551
12.5176
12.4827
12.4502
12.42
12.392
12.366
12.3418
12.3194
12.2987
12.2797
12.2625
12.2476
12.2306
12.1648
11.8872
12.7972
2983.27
-513.707
-192.274
-40.5119
-5.70891
2.18973
4.76752
6.1111
7.07872
7.90886
8.67892
9.41348
10.1193
10.7974
11.447
12.067
12.6563
13.2138
13.7388
14.2307
14.6892
15.1141
15.5056
15.8637
16.189
16.4819
16.743
16.9731
17.173
17.3435
17.4859
17.601
17.6901
17.7544
17.7951
17.8135
17.811
17.789
17.7489
17.6919
17.6196
17.5334
17.4345
17.3243
17.2043
17.0755
16.9394
16.797
16.6495
16.498
16.3435
16.187
16.0294
15.8714
15.714
15.5576
15.4031
15.251
15.1017
14.9558
14.8136
14.6754
14.5416
14.4123
14.2878
14.1681
14.0534
13.9437
13.8391
13.7395
13.6448
13.5551
13.4702
13.39
13.3144
13.2433
13.1764
13.1136
13.0548
12.9998
12.9484
12.9004
12.8556
12.8138
12.775
12.7389
12.7053
12.6741
12.6452
12.6184
12.5935
12.5706
12.5493
12.5298
12.5122
12.4969
12.4798
12.4182
12.165
13.0334
2983.28
-513.67
-192.213
-40.4263
-5.59921
2.3232
4.92431
6.29068
7.28051
8.13219
8.92307
9.67767
10.4027
11.0991
11.7661
12.4026
13.0073
13.5792
14.1176
14.6219
15.0916
15.5268
15.9274
16.2936
16.6259
16.9248
17.1909
17.425
17.6279
17.8005
17.9441
18.0596
18.1482
18.2113
18.25
18.2658
18.2601
18.2343
18.1898
18.128
18.0504
17.9585
17.8536
17.7372
17.6105
17.475
17.332
17.1826
17.028
16.8693
16.7077
16.544
16.3793
16.2143
16.0499
15.8868
15.7256
15.5669
15.4113
15.2593
15.1111
14.9672
14.8278
14.6932
14.5636
14.4391
14.3198
14.2057
14.0968
13.9933
13.8949
13.8017
13.7135
13.6302
13.5517
13.4778
13.4084
13.3433
13.2823
13.2253
13.172
13.1223
13.0759
13.0328
12.9927
12.9554
12.9207
12.8886
12.8588
12.8313
12.8058
12.7823
12.7606
12.7407
12.7227
12.707
12.6898
12.6323
12.4039
13.2278
2983.3
-513.636
-192.156
-40.3468
-5.49725
2.44726
5.07005
6.4576
7.46804
8.33971
9.14988
9.92304
10.6658
11.3792
12.0622
12.7138
13.3327
13.9179
14.4685
14.9839
15.4639
15.9082
16.317
16.6904
17.0289
17.333
17.6033
17.8406
18.0459
18.2201
18.3643
18.4796
18.5673
18.6287
18.6652
18.678
18.6688
18.6388
18.5897
18.5229
18.4398
18.3421
18.2311
18.1083
17.975
17.8327
17.6827
17.5263
17.3646
17.1988
17.03
16.8592
16.6874
16.5155
16.3442
16.1744
16.0066
15.8415
15.6796
15.5215
15.3675
15.2179
15.0731
14.9333
14.7987
14.6694
14.5455
14.4271
14.3142
14.2068
14.1047
14.0081
13.9166
13.8303
13.749
13.6725
13.6006
13.5332
13.4701
13.4112
13.3561
13.3047
13.2569
13.2124
13.171
13.1326
13.0969
13.0639
13.0333
13.0051
12.979
12.955
12.9329
12.9126
12.8944
12.8783
12.861
12.8075
12.6035
13.3815
2983.31
-513.605
-192.103
-40.2732
-5.40292
2.56203
5.20487
6.61199
7.64147
8.53158
9.35955
10.1498
10.9089
11.6378
12.3355
13.001
13.6328
14.23
14.7916
15.3172
15.8063
16.2588
16.6748
17.0545
17.3983
17.7068
17.9806
18.2205
18.4275
18.6026
18.7469
18.8616
18.9479
19.0072
19.041
19.0505
19.0374
19.0031
18.9491
18.877
18.7884
18.6847
18.5674
18.4381
18.2982
18.1491
17.9921
17.8286
17.6598
17.4869
17.311
17.1332
16.9544
16.7755
16.5975
16.4209
16.2467
16.0752
15.9072
15.7431
15.5833
15.4282
15.278
15.1331
14.9936
14.8596
14.7313
14.6087
14.4918
14.3805
14.2749
14.1749
14.0803
13.9911
13.907
13.8279
13.7536
13.684
13.6189
13.558
13.5012
13.4483
13.399
13.3531
13.3106
13.2711
13.2345
13.2006
13.1693
13.1404
13.1138
13.0893
13.0668
13.0462
13.0277
13.0114
12.994
12.9444
12.7638
13.4956
2983.32
-513.576
-192.055
-40.2055
-5.3161
2.66767
5.32894
6.75406
7.80102
8.70804
9.5523
10.3582
11.1322
11.8752
12.5864
13.2643
13.9079
14.5158
15.0874
15.622
16.1193
16.579
17.0013
17.3863
17.7346
18.0467
18.3232
18.5651
18.7732
18.9486
19.0924
19.2059
19.2904
19.3473
19.3779
19.3839
19.3666
19.3277
19.2686
19.1911
19.0967
18.9869
18.8633
18.7275
18.5808
18.4248
18.2609
18.0903
17.9144
17.7344
17.5515
17.3666
17.1809
16.9952
16.8104
16.6273
16.4466
16.2689
16.0948
15.9248
15.7594
15.5988
15.4434
15.2934
15.1491
15.0106
14.8779
14.7511
14.6303
14.5154
14.4063
14.303
14.2053
14.1132
14.0264
13.9448
13.8682
13.7965
13.7294
13.6667
13.6082
13.5537
13.503
13.4559
13.4122
13.3717
13.3342
13.2995
13.2675
13.238
13.2109
13.186
13.1631
13.1423
13.1236
13.107
13.0896
13.0437
12.885
13.5713
2983.32
-513.55
-192.01
-40.1435
-5.23663
2.76435
5.44248
6.88402
7.94693
8.86937
9.72846
10.5485
11.3361
12.0919
12.8151
13.5044
14.1583
14.776
15.3564
15.8989
16.4032
16.8692
17.2968
17.6864
18.0384
18.3533
18.6318
18.8749
19.0835
19.2586
19.4015
19.5134
19.5956
19.6496
19.6768
19.6788
19.6571
19.6133
19.549
19.4659
19.3656
19.2496
19.1195
18.9771
18.8236
18.6607
18.4898
18.3122
18.1292
17.9422
17.7522
17.5604
17.3678
17.1753
16.9839
16.7943
16.6073
16.4235
16.2434
16.0676
15.8966
15.7307
15.5701
15.4152
15.2662
15.1232
14.9862
14.8554
14.7308
14.6122
14.4997
14.3932
14.2926
14.1976
14.1082
14.0242
13.9454
13.8716
13.8025
13.7381
13.678
13.622
13.57
13.5217
13.4769
13.4354
13.397
13.3616
13.329
13.2989
13.2713
13.246
13.2229
13.2018
13.1829
13.1661
13.1487
13.1062
12.9678
13.61
2983.33
-513.525
-191.97
-40.0871
-5.16434
2.85228
5.5457
7.00214
8.0795
9.01588
9.88836
10.7212
11.5209
12.2883
13.0222
13.7215
14.3848
15.0109
15.599
16.1485
16.6589
17.1301
17.5622
17.9555
18.3103
18.6273
18.9072
19.1508
19.3593
19.5336
19.675
19.7848
19.8643
19.9151
19.9385
19.9363
19.9099
19.861
19.7913
19.7023
19.5959
19.4736
19.3371
19.1879
19.0276
18.8578
18.6799
18.4953
18.3053
18.1112
17.9143
17.7156
17.5162
17.3171
17.1191
16.9231
16.7298
16.5399
16.354
16.1726
15.9961
15.8248
15.6593
15.4996
15.3459
15.1985
15.0574
14.9226
14.7942
14.6722
14.5564
14.4468
14.3432
14.2455
14.1536
14.0672
13.9862
13.9104
13.8395
13.7733
13.7117
13.6543
13.601
13.5515
13.5057
13.4633
13.4241
13.3879
13.3547
13.3241
13.2961
13.2704
13.247
13.2258
13.2068
13.1898
13.1725
13.1331
13.0131
13.6131
2983.34
-513.504
-191.934
-40.0362
-5.09905
2.93168
5.63888
7.10873
8.19907
9.14796
10.0324
10.8767
11.6873
12.4648
13.2083
13.9164
14.5878
15.2213
15.816
16.3714
16.8869
17.3625
17.7982
18.1942
18.5512
18.8695
19.1501
19.3937
19.6014
19.7744
19.9139
20.0211
20.0975
20.1447
20.164
20.1572
20.1259
20.0717
19.9963
19.9015
19.7889
19.6602
19.517
19.3611
19.194
19.0172
18.8323
18.6407
18.4437
18.2427
18.0389
17.8333
17.6272
17.4215
17.2171
17.0148
16.8154
16.6195
16.4278
16.2408
16.059
15.8826
15.7121
15.5477
15.3895
15.2378
15.0926
14.954
14.822
14.6965
14.5775
14.4648
14.3584
14.2581
14.1637
14.0751
13.9919
13.9141
13.8415
13.7736
13.7105
13.6517
13.5972
13.5466
13.4998
13.4565
13.4165
13.3797
13.3459
13.3148
13.2864
13.2605
13.2369
13.2155
13.1963
13.1793
13.162
13.1255
13.022
13.5819
2983.35
-513.484
-191.901
-39.9905
-5.04055
3.00279
5.7223
7.20411
8.306
9.266
10.1611
11.0155
11.8356
12.622
13.3738
14.0896
14.7679
15.4078
16.0081
16.5683
17.088
17.5671
18.0055
18.4036
18.7619
19.0809
19.3615
19.6045
19.8109
19.982
20.1191
20.2233
20.2963
20.3395
20.3544
20.3428
20.3063
20.2466
20.1654
20.0645
19.9456
19.8104
19.6606
19.4979
19.3239
19.1402
18.9484
18.7498
18.5458
18.3379
18.1272
17.915
17.7022
17.49
17.2792
17.0707
16.8653
16.6636
16.4662
16.2738
16.0867
15.9053
15.7299
15.5609
15.3983
15.2424
15.0933
14.9509
14.8153
14.6865
14.5643
14.4487
14.3396
14.2367
14.1399
14.0491
13.9639
13.8842
13.8098
13.7404
13.6758
13.6157
13.56
13.5083
13.4606
13.4165
13.3758
13.3384
13.304
13.2725
13.2437
13.2175
13.1937
13.1722
13.153
13.1359
13.1187
13.0848
12.9959
13.5181
2983.35
-513.467
-191.872
-39.95
-4.98863
3.06587
5.79627
7.28862
8.40069
9.37045
10.2748
11.138
11.9664
12.7605
13.5195
14.2418
14.926
15.5711
16.176
16.7402
17.2632
17.7448
18.1852
18.5846
18.9435
19.2625
19.5424
19.7842
19.9889
20.1576
20.2918
20.3927
20.4618
20.5007
20.511
20.4943
20.4524
20.387
20.2999
20.1928
20.0674
19.9257
19.7692
19.5997
19.4188
19.2282
19.0294
18.8239
18.613
18.3983
18.1808
17.9619
17.7426
17.524
17.3069
17.0923
16.881
16.6736
16.4707
16.2729
16.0806
15.8943
15.7142
15.5406
15.3738
15.2138
15.0608
14.9148
14.7758
14.6437
14.5185
14.4
14.2882
14.1828
14.0837
13.9907
13.9036
13.8221
13.746
13.675
13.609
13.5477
13.4908
13.4382
13.3895
13.3446
13.3033
13.2652
13.2304
13.1985
13.1694
13.1429
13.119
13.0974
13.0782
13.0611
13.044
13.0125
12.9363
13.4232
2983.36
-513.452
-191.846
-39.9144
-4.94306
3.12121
5.86111
7.36266
8.48357
9.46178
10.3742
11.2449
12.0804
12.8811
13.646
14.3737
15.0628
15.7121
16.3207
16.8879
17.4132
17.8967
18.3382
18.7381
19.097
19.4153
19.694
19.934
20.1364
20.3024
20.4332
20.5303
20.5953
20.6296
20.6349
20.613
20.5655
20.4942
20.401
20.2876
20.1558
20.0074
19.8442
19.6678
19.4801
19.2826
19.0769
18.8644
18.6468
18.4253
18.2011
17.9756
17.7499
17.525
17.3018
17.0812
16.864
16.651
16.4427
16.2396
16.0423
15.8512
15.6665
15.4886
15.3176
15.1536
14.9968
14.8472
14.7048
14.5696
14.4414
14.3202
14.2058
14.098
13.9967
13.9016
13.8125
13.7292
13.6515
13.5791
13.5118
13.4493
13.3913
13.3377
13.2882
13.2425
13.2005
13.1619
13.1266
13.0943
13.0649
13.0383
13.0142
12.9926
12.9734
12.9563
12.9395
12.91
12.8449
13.2989
2983.36
-513.439
-191.824
-39.8835
-4.9036
3.16909
5.91716
7.4266
8.55508
9.54048
10.4597
11.3368
12.1781
12.9842
13.7541
14.4862
15.1791
15.8317
16.443
17.0123
17.5392
18.0236
18.4656
18.8654
19.2235
19.5406
19.8175
20.0552
20.2548
20.4175
20.5447
20.6377
20.6981
20.7276
20.7277
20.7003
20.647
20.5698
20.4703
20.3505
20.2121
20.0571
19.8871
19.7039
19.5093
19.3049
19.0924
18.8731
18.6487
18.4205
18.1898
17.9578
17.7257
17.4946
17.2654
17.0389
16.8161
16.5975
16.3839
16.1757
15.9735
15.7777
15.5885
15.4063
15.2312
15.0634
14.9029
14.7499
14.6042
14.4659
14.3348
14.2109
14.094
13.9839
13.8804
13.7833
13.6924
13.6074
13.5281
13.4543
13.3857
13.322
13.263
13.2085
13.1582
13.1118
13.0692
13.0301
12.9943
12.9617
12.9321
12.9053
12.8811
12.8594
12.8402
12.8232
12.8066
12.7791
12.7235
13.1468
2983.36
-513.427
-191.805
-39.8573
-4.87
3.20982
5.96481
7.48088
8.61569
9.60709
10.5319
11.4143
12.2604
13.0708
13.8446
14.58
15.2759
15.9308
16.5439
17.1145
17.6422
18.1268
18.5685
18.9674
19.3242
19.6395
19.9141
20.149
20.3454
20.5044
20.6275
20.7161
20.7718
20.7961
20.7908
20.7577
20.6985
20.6151
20.5093
20.383
20.2381
20.0763
19.8996
19.7096
19.5082
19.2969
19.0775
18.8515
18.6204
18.3856
18.1484
17.9101
17.6718
17.4345
17.1994
16.9672
16.7388
16.5148
16.296
16.0829
15.8759
15.6755
15.4819
15.2955
15.1164
14.9449
14.7808
14.6244
14.4756
14.3343
14.2005
14.074
13.9546
13.8422
13.7366
13.6376
13.5449
13.4583
13.3775
13.3024
13.2325
13.1677
13.1077
13.0523
13.0012
12.9542
12.911
12.8714
12.8353
12.8024
12.7725
12.7455
12.7212
12.6996
12.6804
12.6635
12.6472
12.6214
12.5739
12.9687
2983.37
-513.418
-191.79
-39.8353
-4.842
3.24373
6.00441
7.52593
8.6659
9.66215
10.5915
11.478
12.3278
13.1416
13.9182
14.6561
15.3539
16.0103
16.6244
17.1955
17.7232
18.2073
18.648
19.0456
19.4004
19.7133
19.9851
20.2168
20.4095
20.5646
20.6832
20.7671
20.8177
20.8367
20.8258
20.7868
20.7216
20.6319
20.5197
20.3869
20.2353
20.0668
19.8833
19.6865
19.4783
19.2602
19.0341
18.8014
18.5637
18.3224
18.0788
17.8342
17.5898
17.3466
17.1056
16.8678
16.6339
16.4047
16.1809
15.9629
15.7512
15.5463
15.3485
15.158
14.9751
14.7999
14.6324
14.4727
14.3208
14.1767
14.0401
13.9111
13.7893
13.6748
13.5672
13.4663
13.3719
13.2837
13.2015
13.125
13.054
12.9881
12.9272
12.8709
12.8191
12.7714
12.7277
12.6877
12.6512
12.618
12.5879
12.5608
12.5365
12.5148
12.4958
12.479
12.4629
12.4387
12.3981
12.7663
2983.37
-513.41
-191.777
-39.8175
-4.81932
3.27115
6.03637
7.56221
8.70623
9.70624
10.639
11.5286
12.3812
13.1973
13.9758
14.7153
15.4142
16.0712
16.6855
17.2564
17.7834
18.2664
18.7055
19.101
19.4534
19.7635
20.032
20.26
20.4487
20.5993
20.7133
20.7921
20.8374
20.8509
20.8342
20.7892
20.7178
20.6218
20.5031
20.3637
20.2054
20.0302
19.8399
19.6364
19.4214
19.1967
18.9638
18.7246
18.4804
18.2326
17.9828
17.732
17.4816
17.2326
16.9859
16.7426
16.5034
16.2691
16.0402
15.8175
15.6013
15.392
15.1901
14.9957
14.809
14.6302
14.4594
14.2966
14.1417
13.9947
13.8556
13.7241
13.6001
13.4834
13.3739
13.2712
13.1751
13.0854
13.0018
12.9241
12.8519
12.785
12.7232
12.6661
12.6136
12.5653
12.5211
12.4807
12.4438
12.4104
12.3801
12.3529
12.3286
12.307
12.288
12.2714
12.2556
12.2329
12.198
12.5416
2983.37
-513.405
-191.767
-39.8037
-4.80169
3.29242
6.06109
7.59017
8.73719
9.73993
10.6752
11.5669
12.4212
13.2388
14.0184
14.7585
15.4577
16.1146
16.7284
17.2983
17.824
18.3052
18.7421
19.1351
19.4845
19.7912
20.056
20.28
20.4643
20.6102
20.7192
20.7928
20.8326
20.8403
20.8176
20.7665
20.6888
20.5864
20.4612
20.3152
20.1502
19.9683
19.7713
19.561
19.3393
19.108
18.8686
18.6228
18.3722
18.1182
17.8621
17.6053
17.349
17.0943
16.8421
16.5934
16.349
16.1097
15.876
15.6487
15.4281
15.2146
15.0086
14.8104
14.6201
14.4378
14.2638
14.0979
13.9401
13.7905
13.6488
13.5149
13.3887
13.27
13.1586
13.0541
12.9565
12.8653
12.7804
12.7015
12.6282
12.5604
12.4977
12.4398
12.3866
12.3378
12.2931
12.2523
12.2151
12.1814
12.151
12.1237
12.0994
12.0778
12.059
12.0425
12.027
12.0056
11.9756
12.2963
2983.37
-513.4
-191.76
-39.7936
-4.78881
3.30789
6.07899
7.6103
8.75933
9.76384
10.7006
11.5935
12.4487
13.2669
14.0467
14.7867
15.4854
16.1415
16.7541
17.3224
17.8461
18.325
18.7592
19.149
19.4951
19.798
20.0587
20.2783
20.4579
20.5989
20.7026
20.7707
20.8048
20.8066
20.7778
20.7205
20.6364
20.5275
20.3958
20.2431
20.0715
19.8829
19.6792
19.4623
19.234
18.996
18.7501
18.498
18.241
17.9808
17.7187
17.4561
17.194
16.9337
16.6761
16.4221
16.1727
15.9285
15.6902
15.4583
15.2334
15.0158
14.8059
14.604
14.4102
14.2246
14.0474
13.8785
13.718
13.5657
13.4216
13.2854
13.1571
13.0365
12.9232
12.8171
12.7179
12.6253
12.5391
12.459
12.3847
12.316
12.2524
12.1939
12.1401
12.0907
12.0455
12.0043
11.9669
11.933
11.9025
11.8751
11.8508
11.8293
11.8105
11.7943
11.7791
11.7589
11.733
12.0323
2983.37
-513.397
-191.755
-39.7869
-4.78041
3.31791
6.09048
7.62308
8.7732
9.77857
10.7159
11.6092
12.4645
13.2824
14.0617
14.8009
15.4984
16.1529
16.7637
17.3298
17.8509
18.3269
18.758
19.1443
19.4865
19.7853
20.0415
20.2564
20.431
20.5667
20.665
20.7274
20.7556
20.7514
20.7165
20.6528
20.5623
20.4469
20.3086
20.1493
19.971
19.7758
19.5655
19.3419
19.1071
18.8627
18.6104
18.3519
18.0888
17.8225
17.5545
17.2861
17.0184
16.7526
16.4897
16.2307
15.9763
15.7274
15.4845
15.2483
15.0192
14.7976
14.584
14.3784
14.1812
13.9924
13.8122
13.6404
13.4772
13.3224
13.1759
13.0376
12.9072
12.7847
12.6697
12.5619
12.4613
12.3673
12.2799
12.1987
12.1234
12.0538
11.9894
11.9302
11.8758
11.8259
11.7803
11.7388
11.7011
11.667
11.6363
11.6089
11.5846
11.5632
11.5446
11.5285
11.5137
11.4946
11.4721
11.7515
2983.38
-513.396
-191.752
-39.7835
-4.77617
3.32286
6.096
7.62901
8.77936
9.78475
10.7219
11.6147
12.4693
13.2863
14.0643
14.8019
15.4976
16.15
16.7583
17.3217
17.8398
18.3124
18.7398
19.1221
19.4601
19.7544
20.0059
20.2157
20.3851
20.5154
20.608
20.6646
20.6868
20.6764
20.6352
20.5652
20.4682
20.3463
20.2014
20.0355
19.8506
19.6488
19.4319
19.2019
18.9606
18.7097
18.4512
18.1865
17.9174
17.6452
17.3714
17.0973
16.8241
16.553
16.285
16.021
15.7618
15.5083
15.261
15.0205
14.7874
14.562
14.3447
14.1356
13.9351
13.7432
13.56
13.3855
13.2197
13.0625
12.9137
12.7732
12.6409
12.5165
12.3998
12.2906
12.1885
12.0933
12.0047
11.9224
11.8461
11.7756
11.7106
11.6507
11.5957
11.5453
11.4993
11.4575
11.4195
11.3853
11.3545
11.327
11.3027
11.2814
11.263
11.2471
11.2326
11.2146
11.195
11.4557
2983.38
-513.396
-191.752
-39.7831
-4.77581
3.32309
6.09597
7.62858
8.77835
9.78298
10.7192
11.6108
12.464
13.2793
14.0555
14.7909
15.4841
16.1339
16.7391
17.2993
17.8138
18.2827
18.7059
19.084
19.4174
19.7068
19.9533
20.1579
20.3218
20.4464
20.5332
20.5838
20.5999
20.5833
20.5358
20.4593
20.3559
20.2274
20.0759
19.9035
19.7121
19.5037
19.2804
19.0439
18.7962
18.5391
18.2744
18.0037
17.7286
17.4506
17.1712
16.8916
16.6131
16.3368
16.0637
15.7949
15.5311
15.2731
15.0215
14.777
14.5399
14.3108
14.0899
13.8775
13.6738
13.4789
13.2929
13.1157
12.9474
12.7878
12.6368
12.4943
12.3601
12.234
12.1157
12.0049
11.9014
11.805
11.7153
11.632
11.5548
11.4835
11.4177
11.3572
11.3016
11.2508
11.2044
11.1623
11.1241
11.0897
11.0588
11.0313
11.0071
10.9858
10.9675
10.9519
10.9377
10.9207
10.9036
11.1468
2983.37
-513.397
-191.754
-39.7855
-4.77902
3.31897
6.09082
7.62227
8.77073
9.77389
10.7084
11.5982
12.4494
13.2624
14.036
14.7687
15.4589
16.1055
16.7073
17.2637
17.7743
18.2389
18.6578
19.0312
19.3597
19.644
19.8852
20.0843
20.2426
20.3614
20.4422
20.4867
20.4966
20.4737
20.4198
20.3369
20.227
20.092
19.9341
19.7551
19.5572
19.3424
19.1126
18.8698
18.6159
18.3527
18.0819
17.8053
17.5244
17.2407
16.9558
16.6708
16.3871
16.1058
15.8279
15.5544
15.2861
15.0237
14.768
14.5195
14.2787
14.0459
13.8216
13.606
13.3992
13.2014
13.0126
12.8328
12.6621
12.5002
12.3472
12.2027
12.0667
11.9389
11.819
11.7068
11.602
11.5044
11.4136
11.3293
11.2513
11.1792
11.1127
11.0516
10.9955
10.9443
10.8975
10.8551
10.8167
10.7821
10.7512
10.7237
10.6994
10.6783
10.6602
10.6447
10.6309
10.6147
10.5997
10.8265
2983.37
-513.399
-191.757
-39.7904
-4.78552
3.31085
6.08098
7.61059
8.75707
9.7581
10.6903
11.5776
12.4262
13.2363
14.0069
14.7363
15.4231
16.0659
16.6638
17.2161
17.7224
18.1825
18.5966
18.965
19.2883
19.5674
19.8031
19.9965
20.1489
20.2618
20.3366
20.3749
20.3786
20.3493
20.289
20.1997
20.0833
19.9419
19.7774
19.5921
19.3878
19.1666
18.9305
18.6815
18.4214
18.1522
17.8755
17.5931
17.3065
17.0174
16.727
16.4369
16.1481
15.8619
15.5793
15.3012
15.0285
14.762
14.5023
14.2499
14.0054
13.7692
13.5416
13.3228
13.1131
12.9124
12.721
12.5388
12.3657
12.2017
12.0466
11.9003
11.7625
11.6331
11.5117
11.3981
11.2921
11.1933
11.1014
11.0162
10.9374
10.8645
10.7974
10.7357
10.6791
10.6275
10.5804
10.5377
10.4991
10.4644
10.4334
10.4058
10.3816
10.3606
10.3426
10.3274
10.3139
10.2986
10.2853
10.4968
2983.37
-513.402
-191.762
-39.7977
-4.79501
3.29909
6.06687
7.594
8.7379
9.73621
10.6656
11.5499
12.3952
13.202
13.969
14.6947
15.3776
16.0163
16.6099
17.1577
17.6593
18.1145
18.5236
18.8868
19.2048
19.4783
19.7083
19.8959
20.0424
20.1492
20.2178
20.25
20.2473
20.2117
20.145
20.0493
19.9265
19.7786
19.6078
19.416
19.2054
18.978
18.7357
18.4806
18.2146
17.9394
17.657
17.3689
17.0768
16.7823
16.4867
16.1915
15.8978
15.6069
15.3197
15.0372
14.7603
14.4897
14.2261
13.9701
13.7221
13.4825
13.2517
13.0299
12.8173
12.614
12.42
12.2354
12.0601
11.894
11.7369
11.5888
11.4493
11.3183
11.1955
11.0806
10.9734
10.8735
10.7807
10.6945
10.6149
10.5413
10.4735
10.4113
10.3543
10.3022
10.2548
10.2118
10.173
10.1382
10.1071
10.0796
10.0554
10.0345
10.0167
10.0016
9.98847
9.97395
9.96219
10.1593
2983.37
-513.406
-191.769
-39.8071
-4.80719
3.28405
6.04889
7.573
8.71376
9.70881
10.6348
11.5156
12.3572
13.1602
13.9233
14.6448
15.3234
15.9576
16.5466
17.0896
17.5862
18.0363
18.4401
18.7979
19.1103
19.3781
19.6023
19.7839
19.9244
20.0251
20.0875
20.1134
20.1044
20.0625
19.9895
19.8873
19.7582
19.604
19.4268
19.2288
19.0119
18.7784
18.53
18.2689
17.997
17.7161
17.428
17.1344
16.837
16.5373
16.2366
15.9365
15.6381
15.3426
15.0509
14.7642
14.4832
14.2087
13.9414
13.6818
13.4303
13.1875
12.9536
12.7289
12.5136
12.3077
12.1113
11.9244
11.7469
11.5788
11.4199
11.27
11.1289
10.9964
10.8722
10.7561
10.6477
10.5467
10.4529
10.366
10.2855
10.2112
10.1429
10.0801
10.0227
9.97021
9.9225
9.87929
9.84032
9.80536
9.77421
9.74667
9.72256
9.70173
9.68403
9.6692
9.65635
9.64256
9.63211
9.81563
2983.37
-513.411
-191.777
-39.8184
-4.82181
3.26606
6.02746
7.54803
8.68517
9.67649
10.5986
11.4754
12.313
13.1118
13.8705
14.5875
15.2614
15.8909
16.4749
17.0128
17.5042
17.949
18.3473
18.6994
19.0061
19.2681
19.4864
19.662
19.7964
19.8909
19.9471
19.9667
19.9514
19.9032
19.8238
19.7154
19.5799
19.4194
19.236
19.0318
18.8089
18.5693
18.315
18.0481
17.7705
17.484
17.1904
16.8914
16.5888
16.284
15.9785
15.6736
15.3705
15.0706
14.7747
14.4839
14.1989
13.9206
13.6497
13.3866
13.1319
12.886
12.6492
12.4216
12.2036
11.9952
11.7965
11.6074
11.4279
11.2578
11.0971
10.9456
10.8029
10.669
10.5435
10.4261
10.3166
10.2147
10.12
10.0322
9.95097
9.87606
9.80712
9.74385
9.68595
9.63314
9.58514
9.54169
9.50254
9.46747
9.43626
9.40871
9.38464
9.36391
9.34634
9.33171
9.31917
9.30606
9.29673
9.46753
2983.37
-513.416
-191.786
-39.8314
-4.83857
3.24546
6.00295
7.51956
8.65264
9.63981
10.5577
11.4302
12.2633
13.0574
13.8115
14.5237
15.1927
15.817
16.3959
16.9285
17.4145
17.8537
18.2463
18.5928
18.8936
19.1496
19.3619
19.5314
19.6597
19.748
19.798
19.8113
19.7898
19.7352
19.6496
19.5349
19.3932
19.2266
19.0371
18.8268
18.5979
18.3524
18.0924
17.8197
17.5365
17.2445
16.9456
16.6415
16.3338
16.0241
15.7138
15.4043
15.0968
14.7926
14.4926
14.1978
13.909
13.6271
13.3527
13.0863
12.8285
12.5795
12.3399
12.1097
11.8891
11.6783
11.4773
11.2861
11.1046
10.9327
10.7703
10.6171
10.473
10.3377
10.2109
10.0924
9.98186
9.87894
9.78335
9.69476
9.61285
9.53731
9.46782
9.40407
9.34576
9.2926
9.24431
9.20063
9.16132
9.12613
9.09486
9.0673
9.04327
9.02262
9.0052
8.99075
8.9785
8.96603
8.95767
9.11651
2983.37
-513.423
-191.797
-39.8458
-4.85721
3.22257
5.97576
7.48801
8.61665
9.59932
10.5126
11.3804
12.2087
12.998
13.747
14.4542
15.118
15.7371
16.3105
16.8376
17.318
17.7515
18.1384
18.479
18.7739
19.0239
19.2301
19.3935
19.5156
19.5977
19.6415
19.6486
19.6209
19.5601
19.4683
19.3475
19.1996
19.0269
18.8314
18.6152
18.3805
18.1292
17.8635
17.5854
17.2967
16.9994
16.6953
16.3862
16.0736
15.7591
15.4442
15.1303
14.8185
14.5101
14.2061
13.9075
13.6151
13.3297
13.052
12.7824
12.5215
12.2697
12.0273
11.7945
11.5716
11.3585
11.1553
10.9621
10.7787
10.605
10.441
10.2863
10.1407
10.0041
9.87611
9.75648
9.6449
9.54105
9.44461
9.35526
9.27268
9.19653
9.12651
9.0623
9.00359
8.95009
8.90153
8.85764
8.81816
8.78286
8.75152
8.72395
8.69996
8.6794
8.66209
8.64782
8.63585
8.62397
8.61647
8.76407
2983.36
-513.429
-191.808
-39.8616
-4.87749
3.1977
5.94625
7.4538
8.57769
9.55553
10.4639
11.3267
12.15
12.9342
13.678
14.3798
15.0382
15.6518
16.2197
16.7412
17.2158
17.6435
18.0245
18.3592
18.6481
18.8921
19.0922
19.2495
19.3654
19.4414
19.479
19.4799
19.446
19.3791
19.2812
19.1543
19.0005
18.8218
18.6205
18.3985
18.158
17.9012
17.63
17.3464
17.0525
16.7501
16.441
16.127
15.8096
15.4906
15.1712
14.853
14.5371
14.2247
13.9169
13.6146
13.3187
13.03
12.749
12.4764
12.2126
11.958
11.713
11.4778
11.2524
11.0372
10.8319
10.6368
10.4516
10.2762
10.1105
9.95437
9.80747
9.66959
9.54044
9.41975
9.30719
9.20245
9.10521
9.01513
8.9319
8.85517
8.78464
8.71998
8.66089
8.60707
8.55824
8.51413
8.47449
8.43909
8.40769
8.3801
8.35614
8.33565
8.31846
8.30436
8.29265
8.28132
8.27455
8.4116
2983.36
-513.437
-191.82
-39.8784
-4.89917
3.17113
5.91476
7.41733
8.53619
9.50896
10.4122
11.2698
12.0878
12.8666
13.605
14.3014
14.9542
15.5622
16.1244
16.6401
17.1089
17.5308
17.9058
18.2345
18.5174
18.7553
18.9493
19.1005
19.2103
19.2802
19.3117
19.3065
19.2665
19.1936
19.0897
18.9569
18.7972
18.6127
18.4056
18.178
17.9319
17.6696
17.3931
17.1043
16.8053
16.4979
16.184
15.8652
15.5433
15.2198
14.8962
14.5738
14.254
13.9378
13.6263
13.3205
13.0212
12.7292
12.4451
12.1696
11.903
11.6458
11.3983
11.1607
10.9331
10.7157
10.5085
10.3115
10.1246
9.9476
9.78042
9.62285
9.47465
9.33556
9.20531
9.08359
8.9701
8.86451
8.7665
8.67572
8.59186
8.51458
8.44356
8.37847
8.31901
8.26488
8.21579
8.17148
8.13168
8.09616
8.0647
8.0371
8.01316
7.99273
7.97565
7.96169
7.95023
7.93941
7.93328
8.06043
2983.36
-513.444
-191.832
-39.8961
-4.922
3.14316
5.88161
7.37897
8.49259
9.46006
10.358
11.2102
12.0227
12.796
13.5289
14.2196
14.8667
15.469
16.0254
16.5352
16.9982
17.4141
17.7832
18.1058
18.3827
18.6146
18.8025
18.9477
19.0515
19.1153
19.1407
19.1296
19.0836
19.0048
18.895
18.7563
18.5909
18.4007
18.188
17.9549
17.7035
17.4359
17.1542
16.8604
16.5564
16.2442
15.9256
15.6023
15.276
14.9482
14.6205
14.2941
13.9704
13.6506
13.3355
13.0263
12.7238
12.4287
12.1417
11.8634
11.5941
11.3344
11.0845
10.8446
10.6149
10.3955
10.1864
9.98764
9.79904
9.62052
9.4519
9.29298
9.14354
9.0033
8.87199
8.74929
8.63491
8.52851
8.42975
8.33831
8.25385
8.17604
8.10454
8.03904
7.97922
7.92478
7.87545
7.83093
7.79098
7.75535
7.72383
7.69619
7.67227
7.6519
7.63491
7.62109
7.60985
7.5995
7.59394
7.7118
2983.36
-513.452
-191.846
-39.9146
-4.94578
3.11404
5.84713
7.3391
8.44729
9.40929
10.3017
11.1483
11.9553
12.723
13.4501
14.1351
14.7765
15.373
15.9235
16.4275
16.8845
17.2945
17.6576
17.9743
18.2451
18.471
18.653
18.7921
18.8899
18.9477
18.9673
18.9502
18.8984
18.8137
18.6982
18.5539
18.3828
18.1872
17.969
17.7306
17.4739
17.2012
16.9145
16.6158
16.307
15.9902
15.667
15.3394
15.0088
14.677
14.3453
14.0151
13.6878
13.3643
13.0459
12.7335
12.4279
12.1298
11.84
11.559
11.2872
11.025
10.7728
10.5308
10.2991
10.0777
9.86684
9.66635
9.47616
9.29616
9.12616
8.96597
8.81533
8.67399
8.54166
8.41804
8.3028
8.19562
8.09616
8.00408
7.91904
7.84071
7.76876
7.70286
7.64269
7.58796
7.53838
7.49367
7.45356
7.41782
7.38623
7.35857
7.33465
7.31432
7.29741
7.28372
7.27268
7.26276
7.25769
7.36684
2983.35
-513.46
-191.859
-39.9336
-4.9703
3.08403
5.81161
7.29804
8.40066
9.35707
10.2438
11.0848
11.8861
12.6481
13.3695
14.0487
14.6842
15.2748
15.8195
16.3176
16.7687
17.1727
17.5299
17.8406
18.1055
18.3255
18.5015
18.6347
18.7266
18.7786
18.7923
18.7695
18.7119
18.6216
18.5005
18.3506
18.1741
17.9731
17.7497
17.5061
17.2443
16.9667
16.6751
16.3716
16.0583
15.737
15.4095
15.0776
14.743
14.4072
14.0717
13.7379
13.407
13.0802
12.7586
12.443
12.1345
11.8336
11.5411
11.2574
10.9832
10.7188
10.4644
10.2203
9.98661
9.76346
9.55085
9.34874
9.15704
8.97563
8.80431
8.64289
8.49112
8.34874
8.21544
8.09092
7.97487
7.86694
7.7668
7.6741
7.58852
7.50969
7.4373
7.37101
7.31052
7.2555
7.20568
7.16077
7.12051
7.08466
7.05299
7.02529
7.00137
6.98108
6.96424
6.95065
6.9398
6.93027
6.92563
7.02662
2983.35
-513.469
-191.873
-39.9531
-4.99537
3.05336
5.77531
7.2561
8.35307
9.30379
10.1849
11.0201
11.8157
12.5718
13.2874
13.9608
14.5906
15.1753
15.7141
16.2063
16.6515
17.0496
17.4009
17.7057
17.9648
18.1788
18.349
18.4764
18.5625
18.6088
18.6168
18.5883
18.5251
18.4293
18.3027
18.1475
17.9657
17.7595
17.531
17.2824
17.0158
16.7333
16.4371
16.1291
15.8113
15.4857
15.154
14.8181
14.4796
14.14
13.8009
13.4636
13.1293
12.7993
12.4745
12.156
11.8446
11.541
11.2459
10.9599
10.6833
10.4167
10.1602
9.91414
9.67862
9.45373
9.23947
9.03583
8.84269
8.65993
8.48736
8.32477
8.17192
8.02853
7.89431
7.76894
7.65211
7.54346
7.44267
7.34939
7.26327
7.18397
7.11116
7.0445
6.98368
6.92838
6.87832
6.83322
6.79281
6.75684
6.72509
6.69735
6.67342
6.65315
6.63637
6.62288
6.61218
6.60302
6.59875
6.6921
2983.35
-513.477
-191.887
-39.9729
-5.02081
3.02223
5.7385
7.21358
8.30483
9.24982
10.1252
10.9547
11.7444
12.4948
13.2046
13.8722
14.496
15.0749
15.6079
16.0942
16.5336
16.9259
17.2714
17.5704
17.8236
18.0319
18.1963
18.3181
18.3985
18.4391
18.4416
18.4076
18.339
18.2378
18.1059
17.9455
17.7586
17.5473
17.3139
17.0605
16.7892
16.5021
16.2013
15.889
15.567
15.2372
14.9016
14.5618
14.2195
13.8764
13.5337
13.1931
12.8556
12.5225
12.1948
11.8734
11.5593
11.2531
10.9556
10.6672
10.3885
10.1197
9.86125
9.6133
9.37601
9.14946
8.93364
8.72853
8.53402
8.34998
8.17621
8.01252
7.85863
7.71429
7.57918
7.453
7.33542
7.22609
7.12468
7.03083
6.9442
6.86445
6.79123
6.72421
6.66307
6.6075
6.55721
6.51191
6.47135
6.43526
6.40343
6.37563
6.35169
6.33143
6.31469
6.30128
6.29073
6.28189
6.27794
6.36414
2983.34
-513.486
-191.901
-39.9928
-5.04646
2.99086
5.7014
7.17075
8.25626
9.1955
10.0651
10.8888
11.6728
12.4174
13.1214
13.7832
14.4013
14.9744
15.5015
15.9821
16.4157
16.8022
17.142
17.4353
17.6828
17.8855
18.0443
18.1604
18.2353
18.2705
18.2675
18.2282
18.1543
18.0479
17.9109
17.7455
17.5536
17.3375
17.0993
16.8412
16.5654
16.2739
15.9688
15.6523
15.3262
14.9925
14.653
14.3095
13.9637
13.617
13.2711
12.9272
12.5867
12.2506
11.9201
11.5961
11.2794
10.9708
10.6709
10.3803
10.0994
9.82866
9.56831
9.31859
9.07962
8.85148
8.63418
8.42767
8.23186
8.0466
7.8717
7.70694
7.55207
7.40682
7.27087
7.14391
7.02562
6.91564
6.81363
6.71924
6.63212
6.55192
6.47831
6.41094
6.34949
6.29366
6.24314
6.19766
6.15693
6.12072
6.0888
6.06095
6.03698
6.01672
6.00001
5.98666
5.97624
5.96768
5.964
6.04354
2983.34
-513.494
-191.916
-40.0128
-5.07217
2.95943
5.66424
7.12786
8.20762
9.14113
10.005
10.8229
11.6012
12.34
13.0383
13.6943
14.3067
14.8741
15.3955
15.8704
16.2983
16.6792
17.0133
17.301
17.543
17.7401
17.8934
18.0042
18.0737
18.1035
18.0953
18.0508
17.9718
17.8604
17.7185
17.5481
17.3515
17.1307
16.888
16.6254
16.3452
16.0495
15.7403
15.4197
15.0897
14.7522
14.4091
14.0621
13.7128
13.3629
13.0138
12.6669
12.3234
11.9845
11.6513
11.3247
11.0056
10.6946
10.3925
10.0998
9.81694
9.54429
9.28216
9.03074
8.79017
8.56053
8.34182
8.13399
7.93694
7.75051
7.57453
7.40877
7.25297
7.10684
6.97009
6.8424
6.72342
6.61282
6.51024
6.41533
6.32774
6.24711
6.17312
6.10541
6.04367
5.98757
5.93683
5.89115
5.85027
5.81394
5.78192
5.754
5.73
5.70973
5.69304
5.67974
5.66942
5.66112
5.65767
5.73097
2983.34
-513.503
-191.93
-40.0327
-5.0978
2.9281
5.6272
7.08512
8.15918
9.08699
9.94511
10.7574
11.5299
12.2631
12.9557
13.6061
14.2128
14.7746
15.2904
15.7597
16.182
16.5574
16.886
17.1682
17.4048
17.5965
17.7445
17.85
17.9143
17.939
17.9256
17.8761
17.7922
17.6759
17.5292
17.3542
17.153
16.9278
16.6806
16.4138
16.1294
15.8296
15.5164
15.192
14.8583
14.5172
14.1706
13.8202
13.4676
13.1146
12.7625
12.4126
12.0664
11.7248
11.3891
11.06
10.7386
10.4254
10.1212
9.82648
9.54172
9.26728
9.00344
8.75041
8.50833
8.27726
8.05721
7.84812
7.64989
7.46237
7.28536
7.11864
6.96194
6.81499
6.67748
6.54908
6.42945
6.31825
6.21512
6.11971
6.03167
5.95064
5.87628
5.80824
5.7462
5.68985
5.63889
5.59302
5.55199
5.51552
5.48341
5.45542
5.43136
5.41107
5.39439
5.38112
5.37089
5.36282
5.35956
5.42705
2983.34
-513.511
-191.944
-40.0525
-5.12323
2.89701
5.59047
7.04274
8.11117
9.03333
9.88583
10.6925
11.4594
12.187
12.874
13.5188
14.12
14.6762
15.1866
15.6504
16.0673
16.4373
16.7605
17.0374
17.2687
17.4552
17.598
17.6984
17.7576
17.7773
17.7591
17.7047
17.6161
17.4951
17.3438
17.1643
16.9587
16.7292
16.4778
16.2069
15.9185
15.6148
15.2979
14.9698
14.6325
14.288
13.938
13.5844
13.2288
12.8727
12.5177
12.1652
11.8162
11.4722
11.134
10.8026
10.479
10.1637
9.8575
9.56088
9.27432
8.99817
8.73272
8.47817
8.23466
8.00224
7.78091
7.57063
7.37128
7.18271
7.00473
6.83709
6.67955
6.53182
6.39357
6.2645
6.14425
6.03248
5.92883
5.83294
5.74446
5.66304
5.58832
5.51996
5.45764
5.40104
5.34986
5.3038
5.26261
5.22601
5.19379
5.16572
5.14161
5.12129
5.1046
5.09135
5.0812
5.07332
5.07021
5.13229
2983.33
-513.52
-191.958
-40.072
-5.14835
2.86632
5.5542
7.0009
8.06377
8.98039
9.82735
10.6285
11.3899
12.112
12.7935
13.4329
14.0286
14.5795
15.0845
15.5429
15.9545
16.3192
16.6372
16.909
17.1352
17.3166
17.4544
17.5498
17.6042
17.6191
17.5962
17.5372
17.444
17.3185
17.1628
16.979
16.7692
16.5355
16.2802
16.0053
15.7131
15.4057
15.0852
14.7536
14.4129
14.0651
13.712
13.3553
12.9967
12.6379
12.2801
11.9249
11.5735
11.2271
10.8866
10.553
10.2273
9.91001
9.60191
9.3035
9.01523
8.73747
8.47049
8.2145
7.96962
7.73592
7.51339
7.30198
7.10157
6.91201
6.7331
6.5646
6.40625
6.25777
6.11883
5.98911
5.86827
5.75596
5.6518
5.55546
5.46656
5.38476
5.30969
5.24103
5.17843
5.12158
5.07018
5.02394
4.98258
4.94586
4.91352
4.88537
4.8612
4.84083
4.82412
4.81088
4.80078
4.79307
4.79008
4.84712
2983.33
-513.528
-191.972
-40.0912
-5.17306
2.83612
5.51853
6.95977
8.01718
8.92836
9.76989
10.5656
11.3217
12.0384
12.7146
13.3486
13.9391
14.4846
14.9844
15.4377
15.8441
16.2037
16.5167
16.7834
17.0047
17.1812
17.3142
17.4049
17.4546
17.4648
17.4374
17.3739
17.2763
17.1465
16.9866
16.7987
16.5849
16.3472
16.0881
15.8095
15.5136
15.2027
14.8787
14.5438
14.1999
13.849
13.4929
13.1333
12.772
12.4104
12.0501
11.6924
11.3386
10.9899
10.6472
10.3116
9.98388
9.66475
9.35485
9.05474
8.76486
8.48557
8.21714
7.95979
7.71363
7.47871
7.25505
7.04256
6.84115
6.65065
6.47085
6.30154
6.14243
5.99323
5.85363
5.7233
5.6019
5.48906
5.38443
5.28764
5.19834
5.11617
5.04077
4.9718
4.90894
4.85185
4.80024
4.75381
4.71229
4.67542
4.64297
4.61472
4.59048
4.57007
4.55333
4.54008
4.53001
4.52245
4.51955
4.5719
2983.33
-513.536
-191.985
-40.1101
-5.19728
2.80654
5.48358
6.91947
7.97155
8.87741
9.71364
10.5041
11.2549
11.9664
12.6373
13.2662
13.8515
14.392
14.8867
15.3349
15.7364
16.0911
16.3992
16.6611
16.8775
17.0494
17.1777
17.2638
17.309
17.3149
17.283
17.2153
17.1135
16.9796
16.8157
16.6238
16.4061
16.1648
15.9019
15.6198
15.3205
15.0062
14.679
14.3409
13.994
13.6401
13.2811
12.9188
12.5548
12.1907
11.828
11.468
11.1119
10.761
10.4163
10.0788
9.74916
9.42824
9.11665
8.81494
8.52353
8.2428
7.97301
7.71437
7.46699
7.23093
7.00618
6.79269
6.59032
6.39893
6.2183
6.04821
5.88837
5.7385
5.59828
5.46736
5.34542
5.23208
5.12699
5.02978
4.94009
4.85756
4.78184
4.71258
4.64945
4.59213
4.54031
4.49369
4.45201
4.415
4.38243
4.35408
4.32976
4.30929
4.29251
4.27924
4.2692
4.26175
4.25892
4.30692
2983.33
-513.544
-191.998
-40.1285
-5.22092
2.77765
5.44946
6.88014
7.92702
8.8277
9.65877
10.4441
11.1897
11.8961
12.5621
13.1859
13.7663
14.3018
14.7916
15.235
15.6317
15.9816
16.2849
16.5422
16.7541
16.9214
17.0453
17.127
17.1679
17.1695
17.1335
17.0616
16.9558
16.818
16.6503
16.4547
16.2333
15.9884
15.7221
15.4366
15.134
14.8165
14.4862
14.1452
13.7954
13.4387
13.077
12.7121
12.3456
11.9791
11.6141
11.2519
10.8937
10.5408
10.1942
9.85473
9.52336
9.20077
8.88758
8.58435
8.29151
8.00942
7.73834
7.47848
7.22995
6.99281
6.76705
6.55259
6.34933
6.15709
5.97568
5.80485
5.64432
5.49381
5.35299
5.22152
5.09906
4.98524
4.87971
4.7821
4.69204
4.60917
4.53313
4.46359
4.4002
4.34264
4.29061
4.24381
4.20196
4.16481
4.13212
4.10367
4.07926
4.05872
4.04189
4.02859
4.01855
4.01121
4.00841
4.05237
2983.32
-513.552
-192.011
-40.1464
-5.24394
2.74953
5.41627
6.84188
7.8837
8.77935
9.60542
10.3858
11.1265
11.8279
12.489
13.108
13.6835
14.2142
14.6993
15.138
15.5301
15.8754
16.1743
16.4271
16.6345
16.7976
16.9172
16.9947
17.0314
17.029
16.989
16.9132
16.8036
16.6621
16.4907
16.2916
16.0667
15.8184
15.5489
15.2601
14.9545
14.634
14.3008
13.9569
13.6043
13.245
12.8808
12.5135
12.1446
11.7759
11.4086
11.0443
10.6842
10.3294
9.98089
9.63972
9.30669
8.98252
8.66784
8.36318
8.06898
7.78561
7.51332
7.25231
7.0027
6.76454
6.53781
6.32245
6.11834
5.9253
5.74314
5.57161
5.41043
5.25931
5.11792
4.98592
4.86297
4.7487
4.64275
4.54474
4.45432
4.37113
4.29479
4.22497
4.16133
4.10354
4.05131
4.00432
3.9623
3.92501
3.89219
3.86363
3.83913
3.81851
3.80162
3.78828
3.77824
3.77096
3.76819
3.8084
2983.32
-513.559
-192.024
-40.1638
-5.26628
2.72226
5.38406
6.80476
7.84169
8.73247
9.55369
10.3292
11.0651
11.7619
12.4182
13.0325
13.6034
14.1295
14.61
15.0443
15.4319
15.7728
16.0673
16.3159
16.5191
16.678
16.7936
16.867
16.8998
16.8935
16.8498
16.7703
16.6571
16.512
16.3372
16.1347
15.9066
15.6551
15.3824
15.0906
14.782
14.4587
14.1227
13.7762
13.4211
13.0593
12.6927
12.323
11.9519
11.581
11.2118
10.8455
10.4835
10.1269
9.77669
9.43388
9.09929
8.77363
8.45754
8.15154
7.85607
7.57148
7.29805
7.03597
6.78533
6.54621
6.31858
6.10236
5.89745
5.70366
5.52079
5.3486
5.1868
5.0351
4.89317
4.76067
4.63725
4.52254
4.41619
4.31781
4.22705
4.14353
4.0669
3.99681
3.93293
3.87492
3.82247
3.7753
3.73312
3.69568
3.66273
3.63406
3.60946
3.58876
3.57179
3.55841
3.54834
3.54112
3.53834
3.57508
2983.32
-513.566
-192.036
-40.1806
-5.28788
2.69587
5.35291
6.76886
7.80107
8.68715
9.50369
10.2746
11.0059
11.698
12.3498
12.9596
13.526
14.0478
14.5239
14.9539
15.3372
15.674
15.9643
16.2088
16.408
16.5629
16.6746
16.7443
16.7733
16.7634
16.716
16.6331
16.5164
16.368
16.1899
15.9841
15.7529
15.4984
15.2228
14.9282
14.6168
14.2908
13.9522
13.6032
13.2457
12.8815
12.5127
12.1409
11.7677
11.3948
11.0236
10.6555
10.2917
9.93342
9.58163
9.23729
8.90123
8.57418
8.25676
7.9495
7.65283
7.36711
7.09261
6.82951
6.57791
6.33788
6.1094
5.89238
5.68671
5.49221
5.30867
5.13585
4.97347
4.82122
4.67877
4.54579
4.42193
4.30681
4.20006
4.10133
4.01023
3.92641
3.84949
3.77914
3.71502
3.65679
3.60414
3.55679
3.51444
3.47685
3.44377
3.41497
3.39027
3.36948
3.35244
3.339
3.3289
3.32172
3.31892
3.35245
2983.32
-513.573
-192.047
-40.1968
-5.30873
2.67041
5.32286
6.73423
7.76189
8.64344
9.45549
10.2219
10.9488
11.6365
12.2839
12.8895
13.4516
13.9691
14.4411
14.8669
15.2462
15.5789
15.8653
16.1059
16.3013
16.4525
16.5605
16.6265
16.652
16.6386
16.5878
16.5015
16.3816
16.23
16.0488
15.8401
15.606
15.3486
15.0702
14.7729
14.4589
14.1304
13.7894
13.438
13.0782
12.7119
12.3409
11.9671
11.592
11.2172
10.8442
10.4744
10.1089
9.74905
9.39575
9.04997
8.71254
8.38418
8.06551
7.75707
7.45928
7.1725
6.89699
6.63293
6.38043
6.13955
5.91026
5.69248
5.4861
5.29093
5.10676
4.93335
4.77041
4.61763
4.4747
4.34127
4.21698
4.10146
3.99435
3.89527
3.80385
3.71973
3.64254
3.57194
3.50758
3.44913
3.39629
3.34875
3.30624
3.2685
3.23528
3.20636
3.18155
3.16067
3.14354
3.13003
3.11989
3.11273
3.1099
3.14045
2983.31
-513.58
-192.058
-40.2124
-5.3288
2.64591
5.29394
6.70092
7.72421
8.60141
9.40914
10.1713
10.8939
11.5774
12.2207
12.8221
13.3801
13.8936
14.3616
14.7834
15.1589
15.4878
15.7704
16.0073
16.1991
16.3467
16.4512
16.5138
16.536
16.5192
16.4652
16.3758
16.2528
16.0983
15.9142
15.7026
15.4657
15.2057
14.9247
14.6249
14.3085
13.9776
13.6343
13.2807
12.9187
12.5504
12.1774
11.8017
11.4247
11.0482
10.6735
10.3021
9.9351
9.57374
9.21903
8.8719
8.53319
8.2036
7.88377
7.57422
7.27538
6.9876
6.71114
6.44618
6.19284
5.95116
5.72111
5.50262
5.29556
5.09976
4.91499
4.74102
4.57755
4.42429
4.28089
4.14703
4.02233
3.90643
3.79896
3.69956
3.60783
3.52342
3.44597
3.37512
3.31053
3.25187
3.19883
3.15111
3.10844
3.07054
3.03719
3.00815
2.98322
2.96223
2.94502
2.93143
2.92124
2.91409
2.91121
2.93902
2983.31
-513.586
-192.069
-40.2274
-5.34807
2.62239
5.26618
6.66895
7.68804
8.56108
9.36468
10.1227
10.8412
11.5208
12.16
12.7575
13.3116
13.8213
14.2855
14.7036
15.0753
15.4006
15.6797
15.9131
16.1014
16.2456
16.3468
16.4062
16.4252
16.4053
16.3483
16.256
16.1301
15.9727
15.7859
15.5716
15.3322
15.0696
14.7862
14.484
14.1653
13.8322
13.4868
13.1311
12.7672
12.3969
12.0221
11.6446
11.266
10.8878
10.5115
10.1386
9.77016
9.40742
9.05139
8.70301
8.36309
8.03236
7.71144
7.40085
7.10103
6.81232
6.53497
6.26917
6.01504
5.7726
5.54184
5.32268
5.11499
4.91859
4.73326
4.55876
4.39479
4.24106
4.09722
3.96294
3.83786
3.7216
3.6138
3.51407
3.42205
3.33736
3.25965
3.18856
3.12375
3.06488
3.01165
2.96375
2.92091
2.88287
2.84937
2.8202
2.79516
2.77407
2.75677
2.74309
2.73284
2.72568
2.72273
2.74802
2983.31
-513.593
-192.079
-40.2418
-5.36653
2.59985
5.23959
6.63832
7.65341
8.52247
9.32211
10.0762
10.7909
11.4666
12.102
12.6957
13.2462
13.7522
14.2127
14.6273
14.9955
15.3174
15.5931
15.8232
16.0083
16.1493
16.2473
16.3037
16.3197
16.2969
16.2371
16.1419
16.0133
15.8533
15.6639
15.4472
15.2053
14.9404
14.6547
14.3503
14.0295
13.6943
13.3469
12.9893
12.6236
12.2515
11.875
11.4958
11.1156
10.7359
10.3581
9.98379
9.61402
9.24999
8.89274
8.54318
8.20214
7.87034
7.54841
7.23685
6.93611
6.64652
6.36834
6.10176
5.84688
5.60374
5.37231
5.15252
4.94423
4.74727
4.56141
4.38641
4.22197
4.06779
3.92354
3.78887
3.66342
3.54681
3.43868
3.33865
3.24635
3.16139
3.08343
3.01211
2.94707
2.88801
2.83459
2.78651
2.74351
2.70531
2.67167
2.64238
2.61722
2.59601
2.57861
2.56485
2.55453
2.54734
2.54433
2.56728
2983.31
-513.598
-192.089
-40.2556
-5.38418
2.57831
5.21417
6.60905
7.62031
8.48557
9.28145
10.0318
10.7428
11.4148
12.0467
12.6368
13.1837
13.6862
14.1434
14.5546
14.9195
15.2381
15.5107
15.7376
15.9196
16.0576
16.1528
16.2062
16.2194
16.1939
16.1314
16.0336
15.9025
15.7401
15.5483
15.3292
15.085
14.818
14.5301
14.2237
13.9009
13.5638
13.2146
12.8552
12.4877
12.114
11.7358
11.3551
10.9734
10.5923
10.2132
9.83755
9.46653
9.10131
8.74291
8.39226
8.05018
7.71739
7.3945
7.08205
6.78045
6.49004
6.21109
5.94378
5.6882
5.44439
5.21234
4.99195
4.7831
4.58561
4.39925
4.22378
4.0589
3.9043
3.75965
3.62461
3.4988
3.38187
3.27343
3.1731
3.08052
2.99531
2.91711
2.84556
2.78031
2.72105
2.66744
2.61919
2.57603
2.53768
2.5039
2.47447
2.44919
2.42787
2.41036
2.39651
2.38612
2.3789
2.37581
2.39661
2983.31
-513.604
-192.099
-40.2687
-5.40103
2.55775
5.18993
6.58114
7.58875
8.4504
9.24269
9.98952
10.697
11.3655
11.9939
12.5807
13.1243
13.6235
14.0775
14.4855
14.8473
15.1628
15.4323
15.6563
15.8355
15.9707
16.063
16.1138
16.1243
16.0963
16.0313
15.9311
15.7976
15.6328
15.4388
15.2176
14.9713
14.7022
14.4124
14.1041
13.7794
13.4406
13.0896
12.7285
12.3594
11.9842
11.6046
11.2224
10.8393
10.4569
10.0766
9.6997
9.32753
8.9612
8.60174
8.25007
7.90703
7.57331
7.24955
6.93625
6.63385
6.34269
6.06301
5.79501
5.53878
5.29435
5.06171
4.84077
4.6314
4.4334
4.24657
4.07065
3.90535
3.75035
3.60533
3.46993
3.34379
3.22654
3.1178
3.0172
2.92436
2.8389
2.76046
2.68869
2.62324
2.56377
2.50998
2.46156
2.41824
2.37973
2.34581
2.31625
2.29085
2.26942
2.2518
2.23786
2.22738
2.22012
2.21695
2.23577
2983.3
-513.609
-192.107
-40.2812
-5.41707
2.53817
5.16683
6.55455
7.5587
8.41691
9.2058
9.94926
10.6534
11.3186
11.9438
12.5274
13.0678
13.5639
14.0148
14.4199
14.7787
15.0914
15.3581
15.5793
15.7557
15.8883
15.978
16.0263
16.0344
16.0039
15.9366
15.8341
15.6985
15.5316
15.3354
15.1122
14.864
14.593
14.3013
13.9913
13.6649
13.3244
12.9718
12.6092
12.2387
11.862
11.481
11.0975
10.7132
10.3295
9.94805
9.57005
9.19681
8.82945
8.46901
8.11641
7.77246
7.43789
7.11331
6.79923
6.49609
6.20422
5.92387
5.65523
5.39839
5.15339
4.9202
4.69873
4.48886
4.2904
4.10313
3.92678
3.76108
3.60571
3.46033
3.32459
3.19813
3.08058
2.97156
2.87069
2.77759
2.69189
2.61322
2.54124
2.47558
2.41593
2.36196
2.31337
2.26989
2.23123
2.19717
2.16748
2.14195
2.1204
2.10268
2.08863
2.07808
2.07077
2.0675
2.0845
2983.3
-513.615
-192.116
-40.2931
-5.43233
2.51955
5.14487
6.52928
7.53014
8.38509
9.17075
9.91102
10.612
11.2741
11.8962
12.4768
13.0142
13.5074
13.9555
14.3577
14.7138
15.0237
15.2878
15.5064
15.6803
15.8104
15.8977
15.9436
15.9494
15.9167
15.8472
15.7427
15.605
15.4361
15.238
15.0129
14.7629
14.4901
14.1968
13.8851
13.5572
13.2151
12.8611
12.4971
12.1252
11.7472
11.3649
10.9803
10.5947
10.21
9.82741
9.44839
9.07415
8.70585
8.3445
7.99103
7.64626
7.31089
6.98555
6.67076
6.36692
6.07439
5.79342
5.52418
5.26677
5.02123
4.78752
4.56557
4.35523
4.15633
3.96864
3.7919
3.62582
3.47009
3.32437
3.18831
3.06155
2.94371
2.83442
2.73328
2.63994
2.55401
2.47513
2.40293
2.33708
2.27724
2.2231
2.17434
2.1307
2.0919
2.0577
2.02787
2.00221
1.98055
1.96272
1.94856
1.93792
1.93055
1.92719
1.94253
2983.3
-513.619
-192.124
-40.3043
-5.44683
2.50187
5.12402
6.50528
7.50303
8.35489
9.1375
9.87475
10.5728
11.232
11.8512
12.4288
12.9635
13.454
13.8993
14.2988
14.6523
14.9597
15.2213
15.4375
15.609
15.7368
15.8219
15.8656
15.8693
15.8346
15.763
15.6565
15.5169
15.3462
15.1464
14.9196
14.6679
14.3935
14.0986
13.7854
13.456
13.1126
12.7572
12.3919
12.0187
11.6395
11.2562
10.8704
10.4838
10.098
9.71443
9.33446
8.95932
8.59014
8.22796
7.87369
7.52815
7.19206
6.86602
6.55055
6.24608
5.95294
5.67138
5.40158
5.14365
4.8976
4.66341
4.441
4.23023
4.03092
3.84283
3.66571
3.49928
3.34321
3.19717
3.06081
2.93375
2.81564
2.70608
2.6047
2.51112
2.42497
2.34587
2.27348
2.20744
2.14742
2.0931
2.04418
2.00038
1.96143
1.92709
1.89713
1.87135
1.84957
1.83162
1.81736
1.80663
1.7992
1.79574
1.80954
2983.3
-513.624
-192.132
-40.3151
-5.46058
2.4851
5.10425
6.48254
7.47733
8.32627
9.106
9.8404
10.5356
11.192
11.8085
12.3835
12.9155
13.4034
13.8462
14.2433
14.5943
14.8994
15.1586
15.3726
15.5419
15.6675
15.7505
15.7922
15.7939
15.7573
15.6839
15.5756
15.4342
15.2618
15.0603
14.832
14.5788
14.3029
14.0066
13.692
13.3613
13.0166
12.66
12.2935
11.9192
11.5389
11.1544
10.7676
10.38
9.99331
9.60885
9.22801
8.85204
8.48207
8.11912
7.76411
7.41787
7.0811
6.75442
6.43833
6.13327
5.83957
5.55747
5.28716
5.02872
4.78221
4.54757
4.32474
4.11356
3.91385
3.72539
3.54792
3.38115
3.22476
3.07842
2.94176
2.81443
2.69606
2.58625
2.48463
2.39082
2.30445
2.22515
2.15256
2.08633
2.02614
1.97165
1.92257
1.87862
1.83952
1.80504
1.77495
1.74905
1.72714
1.70909
1.69472
1.6839
1.6764
1.67283
1.68524
2983.3
-513.628
-192.139
-40.3252
-5.47361
2.46921
5.08552
6.46099
7.45299
8.29918
9.07618
9.80789
10.5004
11.1543
11.7682
12.3406
12.8702
13.3557
13.7961
14.1908
14.5396
14.8425
15.0996
15.3114
15.4787
15.6023
15.6834
15.7232
15.7231
15.6847
15.6096
15.4996
15.3567
15.1827
14.9797
14.7499
14.4953
14.2181
13.9205
13.6047
13.2727
12.9269
12.5691
12.2016
11.8262
11.4449
11.0595
10.6717
10.2833
9.8957
9.51042
9.12879
8.75205
8.38135
8.0177
7.66202
7.31513
6.97775
6.65047
6.33381
6.02821
5.73398
5.45138
5.18059
4.9217
4.67475
4.43969
4.21646
4.00489
3.80482
3.61602
3.43821
3.27112
3.11443
2.9678
2.83086
2.70327
2.58464
2.47459
2.37275
2.27872
2.19214
2.11264
2.03986
1.97345
1.91308
1.85843
1.8092
1.76509
1.72586
1.69124
1.66102
1.63499
1.61297
1.5948
1.58033
1.56941
1.56184
1.55817
1.56929
2983.3
-513.633
-192.146
-40.3348
-5.48594
2.45417
5.06779
6.4406
7.42997
8.27356
9.04799
9.77717
10.4672
11.1186
11.7301
12.3002
12.8275
13.3106
13.7488
14.1414
14.4881
14.7889
15.044
15.2539
15.4193
15.5411
15.6204
15.6584
15.6567
15.6166
15.54
15.4285
15.2841
15.1087
14.9043
14.6732
14.4173
14.1389
13.8401
13.5231
13.1901
12.8432
12.4844
12.1159
11.7396
11.3574
10.9711
10.5825
10.1932
9.80488
9.41884
9.0365
8.65907
8.2877
7.92341
7.56712
7.21965
6.88169
6.55387
6.23669
5.93058
5.63587
5.35282
5.08158
4.82227
4.5749
4.33946
4.11585
3.90393
3.70351
3.51438
3.33626
3.16887
3.01189
2.86498
2.72779
2.59994
2.48107
2.37079
2.26873
2.17449
2.08771
2.00802
1.93505
1.86847
1.80793
1.75312
1.70373
1.65948
1.6201
1.58535
1.555
1.52884
1.50671
1.48842
1.47385
1.46283
1.45519
1.45141
1.46136
2983.29
-513.636
-192.152
-40.3439
-5.49762
2.43994
5.05103
6.42132
7.40821
8.24934
9.02135
9.74815
10.4359
11.0849
11.6942
12.2621
12.7872
13.2682
13.7044
14.095
14.4397
14.7386
14.9918
15.1999
15.3635
15.4836
15.5613
15.5977
15.5944
15.5529
15.4748
15.3619
15.2162
15.0395
14.834
14.6016
14.3446
14.0651
13.7652
13.4472
13.1132
12.7653
12.4056
12.0362
11.6591
11.276
10.889
10.4996
10.1096
9.72056
9.33386
8.95086
8.57281
8.20084
7.83597
7.47912
7.13111
6.79263
6.46431
6.14666
5.84009
5.54494
5.26145
4.98981
4.7301
4.48236
4.24655
4.02259
3.81033
3.6096
3.42015
3.24174
3.07407
2.91681
2.76964
2.6322
2.50411
2.38501
2.27451
2.17223
2.0778
1.99082
1.91094
1.8378
1.77104
1.71034
1.65537
1.60583
1.56144
1.52192
1.48704
1.45656
1.43028
1.40803
1.38963
1.37496
1.36384
1.35612
1.35224
1.36112
2983.29
-513.64
-192.158
-40.3525
-5.50865
2.42648
5.03518
6.4031
7.38765
8.22647
8.99621
9.72077
10.4063
11.0532
11.6603
12.2262
12.7492
13.2283
13.6625
14.0513
14.3942
14.6913
14.9428
15.1492
15.3112
15.4298
15.5059
15.541
15.5363
15.4934
15.414
15.2998
15.1529
14.975
14.7684
14.5349
14.2769
13.9964
13.6955
13.3766
13.0417
12.693
12.3325
11.9623
11.5844
11.2006
10.8128
10.4228
10.0322
9.64248
9.25517
8.87158
8.49297
8.12046
7.75507
7.39771
7.04921
6.71027
6.3815
6.0634
5.75641
5.46085
5.17698
4.90496
4.64488
4.39679
4.16065
3.93636
3.72379
3.52275
3.33302
3.15433
2.98638
2.82887
2.68145
2.54377
2.41545
2.29613
2.18542
2.08294
1.98831
1.90114
1.82109
1.74777
1.68085
1.61999
1.56486
1.51518
1.47064
1.43099
1.39597
1.36537
1.33898
1.31661
1.2981
1.28332
1.27211
1.26431
1.26033
1.26823
2983.29
-513.644
-192.164
-40.3607
-5.51909
2.41377
5.0202
6.38589
7.36823
8.20487
8.97247
9.69493
10.3784
11.0233
11.6284
12.1923
12.7135
13.1908
13.6232
14.0102
14.3514
14.6469
14.8968
15.1017
15.2623
15.3794
15.4542
15.4879
15.4819
15.4378
15.3572
15.242
15.0939
14.915
14.7073
14.4729
14.214
13.9325
13.6309
13.3111
12.9754
12.6259
12.2647
11.8938
11.5152
11.1308
10.7424
10.3518
9.9606
9.57034
9.18249
8.79839
8.41927
8.04627
7.68041
7.3226
6.97366
6.63429
6.30511
5.98662
5.67924
5.38332
5.09908
4.82671
4.5663
4.31788
4.08142
3.85683
3.64397
3.44265
3.25264
3.07369
2.90549
2.74773
2.60008
2.46217
2.33363
2.2141
2.10319
2.00051
1.90569
1.81834
1.73811
1.66463
1.59755
1.53653
1.48126
1.43143
1.38675
1.34697
1.31183
1.2811
1.25459
1.23211
1.21349
1.19861
1.1873
1.17943
1.17534
1.18235
2983.29
-513.647
-192.17
-40.3683
-5.52895
2.40175
5.00605
6.36963
7.34989
8.18449
8.95007
9.67056
10.3521
10.9951
11.5984
12.1605
12.68
13.1555
13.5863
13.9717
14.3113
14.6053
14.8538
15.0573
15.2165
15.3323
15.4059
15.4384
15.4312
15.386
15.3043
15.1881
15.039
14.8592
14.6506
14.4154
14.1556
13.8734
13.571
13.2505
12.9141
12.564
12.2021
11.8306
11.4514
11.0664
10.6775
10.2863
9.89462
9.50387
9.11554
8.73098
8.35141
7.97798
7.6117
7.25349
6.90415
6.56441
6.23485
5.916
5.60828
5.31201
5.02744
4.75475
4.49403
4.24532
4.00857
3.78369
3.57056
3.36897
3.17871
2.9995
2.83107
2.67308
2.5252
2.38707
2.25832
2.13859
2.02748
1.92461
1.82961
1.74209
1.66169
1.58805
1.52081
1.45964
1.40422
1.35425
1.30944
1.26953
1.23426
1.20342
1.17679
1.1542
1.13548
1.12049
1.1091
1.10114
1.09696
1.10316
2983.29
-513.65
-192.175
-40.3756
-5.53827
2.39039
4.99268
6.35427
7.33257
8.16524
8.92894
9.64757
10.3273
10.9685
11.5701
12.1306
12.6484
13.1224
13.5516
13.9355
14.2738
14.5664
14.8135
15.0157
15.1737
15.2884
15.3608
15.3922
15.384
15.3378
15.2552
15.138
14.9881
14.8075
14.5981
14.3621
14.1016
13.8187
13.5156
13.1945
12.8575
12.5068
12.1444
11.7723
11.3926
11.0072
10.6177
10.2261
9.83396
9.44278
9.05404
8.66907
8.28912
7.9153
7.54865
7.19008
6.8404
6.50031
6.17042
5.85124
5.5432
5.24663
4.96176
4.68878
4.42778
4.17878
3.94176
3.71662
3.50323
3.3014
3.11089
2.93145
2.76279
2.60458
2.45649
2.31815
2.18921
2.06928
1.95798
1.85494
1.75976
1.67207
1.59151
1.5177
1.45031
1.389
1.33344
1.28333
1.23839
1.19835
1.16297
1.132
1.10526
1.08256
1.06374
1.04865
1.03717
1.02914
1.02485
1.03032
2983.29
-513.653
-192.18
-40.3825
-5.54709
2.37965
4.98004
6.33975
7.31621
8.14707
8.90899
9.62589
10.3039
10.9435
11.5435
12.1024
12.6187
13.0912
13.519
13.9016
14.2385
14.5299
14.7758
14.9769
15.1338
15.2473
15.3187
15.3492
15.34
15.2929
15.2095
15.0915
14.9409
14.7595
14.5495
14.3128
14.0516
13.7682
13.4645
13.1429
12.8054
12.4542
12.0913
11.7188
11.3386
10.9527
10.5629
10.1709
9.77836
9.38681
8.99771
8.61239
8.2321
7.85795
7.49098
7.13209
6.78209
6.4417
6.11152
5.79205
5.48373
5.18687
4.90173
4.62849
4.36722
4.11797
3.8807
3.65532
3.44169
3.23962
3.04889
2.86923
2.70035
2.54193
2.39364
2.2551
2.12597
2.00585
1.89438
1.79116
1.69581
1.60796
1.52724
1.45328
1.38574
1.32429
1.26859
1.21835
1.17329
1.13312
1.09762
1.06654
1.03969
1.01689
0.997963
0.98278
0.971203
0.963095
0.95872
0.963519
2983.29
-513.656
-192.185
-40.389
-5.55542
2.3695
4.96809
6.32603
7.30075
8.1299
8.89015
9.60542
10.2818
10.9199
11.5184
12.0758
12.5908
13.0619
13.4885
13.8698
14.2055
14.4957
14.7406
14.9406
15.0965
15.2091
15.2796
15.3091
15.2992
15.2513
15.1672
15.0485
14.8972
14.7152
14.5045
14.2673
14.0056
13.7216
13.4175
13.0954
12.7575
12.4058
12.0426
11.6697
11.2892
10.9029
10.5128
10.1204
9.72755
9.33569
8.94628
8.56067
8.18008
7.80566
7.4384
7.07924
6.72897
6.38831
6.05787
5.73814
5.42956
5.13246
4.84707
4.57358
4.31208
4.06259
3.82509
3.59949
3.38563
3.18335
2.9924
2.81254
2.64345
2.48484
2.33635
2.19763
2.06831
1.94801
1.83636
1.73298
1.63747
1.54946
1.46858
1.39448
1.3268
1.2652
1.20937
1.15901
1.11381
1.07353
1.03791
1.00673
0.97977
0.956862
0.937841
0.922566
0.910902
0.902719
0.898254
0.902449
2983.29
-513.659
-192.189
-40.3951
-5.56331
2.3599
4.95678
6.31306
7.28613
8.11368
8.87236
9.5861
10.261
10.8977
11.4948
12.0509
12.5645
13.0344
13.4598
13.8399
14.1746
14.4638
14.7076
14.9067
15.0617
15.1734
15.2431
15.2719
15.2613
15.2127
15.1279
15.0086
14.8568
14.6742
14.4631
14.2254
13.9633
13.6789
13.3743
13.0519
12.7136
12.3616
11.998
11.6248
11.244
10.8575
10.467
10.0744
9.68128
9.28916
8.8995
8.51364
8.13282
7.75815
7.39065
7.03125
6.68076
6.33987
6.00919
5.68924
5.38043
5.0831
4.7975
4.52379
4.26206
4.01236
3.77465
3.54883
3.33478
3.13229
2.94114
2.76108
2.5918
2.433
2.28432
2.14542
2.01593
1.89547
1.78365
1.6801
1.58443
1.49627
1.41525
1.341
1.27318
1.21145
1.15549
1.105
1.05969
1.01929
0.983558
0.952265
0.925206
0.9022
0.883084
0.867719
0.855972
0.847716
0.843164
0.846814
2983.29
-513.661
-192.193
-40.4009
-5.57077
2.3508
4.94609
6.30078
7.27231
8.09834
8.85554
9.56785
10.2414
10.8767
11.4725
12.0273
12.5398
13.0086
13.4328
13.812
14.1456
14.4338
14.6768
14.8751
15.0292
15.1403
15.2092
15.2374
15.2261
15.177
15.0916
14.9718
14.8195
14.6365
14.4249
14.1868
13.9244
13.6396
13.3348
13.012
12.6734
12.3212
11.9573
11.5839
11.2029
10.8161
10.4255
10.0326
9.63931
9.24699
8.85713
8.47107
8.09004
7.71517
7.34748
6.98788
6.63719
6.2961
5.96522
5.64508
5.33607
5.03854
4.75274
4.47883
4.21691
3.96701
3.7291
3.50309
3.28884
3.08617
2.89483
2.71459
2.54513
2.38614
2.23729
2.09822
1.96856
1.84793
1.73595
1.63225
1.53643
1.44812
1.36695
1.29257
1.22461
1.16275
1.10667
1.05606
1.01063
0.970117
0.934276
0.902879
0.875721
0.852619
0.833412
0.81796
0.806132
0.797806
0.793172
0.796331
2983.29
-513.664
-192.197
-40.4065
-5.57785
2.34218
4.93595
6.28915
7.25922
8.08382
8.83963
9.55059
10.2228
10.8569
11.4515
12.0052
12.5165
12.9843
13.4075
13.7857
14.1185
14.4059
14.648
14.8455
14.999
15.1094
15.1777
15.2053
15.1935
15.1439
15.0581
14.9379
14.7851
14.6018
14.3899
14.1515
13.8887
13.6037
13.2987
12.9757
12.6369
12.2845
11.9204
11.5468
11.1656
10.7787
10.3879
9.99489
9.6014
9.20892
8.81891
8.4327
8.05151
7.67649
7.30864
6.94888
6.59802
6.25677
5.92572
5.60541
5.29623
4.99852
4.71254
4.43846
4.17636
3.92628
3.6882
3.46201
3.24758
3.04472
2.85322
2.67279
2.50316
2.34401
2.19499
2.05575
1.92593
1.80514
1.69301
1.58916
1.49319
1.40474
1.32343
1.24891
1.18083
1.11884
1.06264
1.01191
0.966365
0.925745
0.8898
0.858303
0.831049
0.807855
0.78856
0.773025
0.76112
0.752726
0.748014
0.750733
2983.28
-513.666
-192.201
-40.4117
-5.58458
2.334
4.92634
6.27813
7.24681
8.07007
8.82457
9.53426
10.2053
10.8381
11.4316
11.9843
12.4946
12.9614
13.3838
13.7611
14.0931
14.3797
14.6212
14.818
14.9709
15.0807
15.1485
15.1756
15.1634
15.1133
15.0271
14.9066
14.7535
14.5699
14.3578
14.1192
13.8562
13.571
13.2658
12.9426
12.6037
12.2511
11.887
11.5133
11.132
10.7449
10.354
9.96094
9.56734
9.17476
8.78464
8.39831
8.01702
7.64187
7.2739
6.91402
6.56303
6.22164
5.89045
5.56999
5.26066
4.96281
4.67667
4.40243
4.14017
3.88993
3.65168
3.42533
3.21074
3.00772
2.81604
2.63546
2.46566
2.30635
2.15717
2.01778
1.8878
1.76686
1.65458
1.55058
1.45447
1.36588
1.28444
1.20979
1.14158
1.07947
1.02315
0.972302
0.926651
0.885926
0.84988
0.818286
0.790939
0.767657
0.748279
0.732664
0.720686
0.712227
0.707442
0.709765
2983.28
-513.668
-192.204
-40.4167
-5.59103
2.3262
4.9172
6.26766
7.23505
8.05703
8.81031
9.5188
10.1887
10.8204
11.4129
11.9645
12.4739
12.9399
13.3614
13.738
14.0692
14.3552
14.596
14.7923
14.9446
15.054
15.1214
15.1481
15.1355
15.0851
14.9986
14.8778
14.7246
14.5408
14.3284
14.0897
13.8266
13.5413
13.236
12.9127
12.5737
12.2211
11.8569
11.4831
11.1017
10.7147
10.3237
9.93058
9.53692
9.14428
8.7541
8.36771
7.98634
7.61111
7.24306
6.88308
6.53199
6.19049
5.85919
5.53861
5.22916
4.93118
4.64491
4.37052
4.10812
3.85774
3.61934
3.39283
3.17809
2.97491
2.78309
2.60234
2.4324
2.27293
2.1236
1.98405
1.85393
1.73284
1.62042
1.51628
1.42003
1.33131
1.24974
1.17496
1.10663
1.0444
0.987964
0.937009
0.891252
0.850425
0.814282
0.782594
0.755159
0.731793
0.712334
0.696644
0.684596
0.676076
0.671224
0.673193
2983.28
-513.67
-192.208
-40.4218
-5.5974
2.31863
4.90845
6.25771
7.22387
8.04466
8.79678
9.50415
10.173
10.8037
11.3952
11.9459
12.4544
12.9196
13.3404
13.7162
14.0469
14.3322
14.5726
14.7684
14.9203
15.0292
15.0962
15.1226
15.1097
15.0591
14.9725
14.8515
14.6981
14.5141
14.3017
14.0629
13.7997
13.5144
13.209
12.8858
12.5468
12.1941
11.8299
11.4561
11.0748
10.6877
10.2967
9.90362
9.50996
9.11731
8.7271
8.34068
7.95927
7.58401
7.2159
6.85586
6.5047
6.16312
5.83174
5.51106
5.20151
4.90342
4.61703
4.34253
4.08
3.82949
3.59095
3.36431
3.14942
2.9461
2.75413
2.57325
2.40315
2.24354
2.09406
1.95437
1.8241
1.70288
1.59032
1.48604
1.38966
1.30081
1.21911
1.14421
1.07576
1.01342
0.956873
0.905812
0.859952
0.819027
0.78279
0.751013
0.723493
0.700046
0.680511
0.66475
0.652636
0.644058
0.639143
0.640799
2983.28
-513.673
-192.212
-40.4274
-5.60428
2.3109
4.89991
6.24817
7.21323
8.03291
8.78394
9.49026
10.1581
10.7878
11.3784
11.9283
12.436
12.9004
13.3206
13.6958
14.0259
14.3108
14.5507
14.746
14.8976
15.0062
15.0729
15.0991
15.086
15.0352
14.9484
14.8274
14.6739
14.4899
14.2774
14.0386
13.7754
13.4901
13.1848
12.8616
12.5227
12.1701
11.8059
11.4322
11.0509
10.6639
10.273
9.8799
9.48628
9.09365
8.70347
8.31706
7.93565
7.56038
7.19225
6.83218
6.48097
6.13935
5.8079
5.48716
5.17753
4.87934
4.59286
4.31825
4.05562
3.80499
3.56633
3.33956
3.12455
2.9211
2.72899
2.54797
2.37773
2.21798
2.06837
1.92854
1.79814
1.67677
1.56408
1.45967
1.36317
1.27419
1.19237
1.11735
1.04878
0.986332
0.929676
0.878512
0.832553
0.791534
0.755206
0.723344
0.695743
0.672219
0.652612
0.636784
0.624608
0.615976
0.611003
0.612382
2983.28
-513.676
-192.217
-40.4352
-5.61348
2.30165
4.89088
6.23881
7.20307
8.02176
8.77178
9.47712
10.144
10.7728
11.3626
11.9117
12.4187
12.8824
13.302
13.6767
14.0063
14.2907
14.5302
14.7252
14.8765
14.9849
15.0514
15.0774
15.0642
15.0133
14.9265
14.8054
14.6519
14.4679
14.2555
14.0167
13.7536
13.4684
13.1632
12.8401
12.5013
12.1488
11.7848
11.4112
11.03
10.6431
10.2522
9.85926
9.46572
9.07316
8.68304
8.29668
7.91531
7.54006
7.17194
6.81187
6.46065
6.119
5.78752
5.46673
5.15704
4.85879
4.57223
4.29753
4.0348
3.78407
3.5453
3.31842
3.10329
2.89971
2.70748
2.52633
2.35597
2.19608
2.04634
1.90638
1.77584
1.65435
1.54153
1.43699
1.34036
1.25126
1.16932
1.09419
1.02551
0.962953
0.906193
0.85493
0.808876
0.767766
0.731352
0.699408
0.671729
0.648133
0.628458
0.612566
0.600333
0.591652
0.586625
0.587762
2983.27
-513.687
-192.226
-40.4484
-5.62945
2.28703
4.87907
6.22861
7.19307
8.01119
8.76036
9.4648
10.1308
10.7588
11.3477
11.8961
12.4024
12.8655
13.2845
13.6588
13.988
14.272
14.5112
14.706
14.857
14.9652
15.0316
15.0575
15.0442
14.9933
14.9065
14.7854
14.6319
14.4481
14.2358
13.9971
13.7342
13.4491
13.144
12.8211
12.4824
12.1302
11.7663
11.3929
11.0118
10.6251
10.2344
9.84155
9.44814
9.0557
8.66567
8.2794
7.8981
7.52291
7.15483
6.79479
6.44359
6.10193
5.77044
5.44962
5.13989
4.84159
4.55497
4.2802
4.01739
3.76657
3.52771
3.30073
3.08548
2.8818
2.68945
2.50817
2.33769
2.17768
2.02781
1.88772
1.75706
1.63544
1.5225
1.41784
1.32109
1.23187
1.14982
1.07458
1.00579
0.943126
0.886266
0.834907
0.788762
0.747564
0.711067
0.679045
0.651293
0.627628
0.607889
0.591939
0.579652
0.570925
0.565851
0.566777
2983.23
-513.736
-192.249
-40.4702
-5.65958
2.25852
4.85829
6.21417
7.18169
8.00069
8.74968
9.45354
10.1188
10.746
11.3342
11.8819
12.3876
12.8502
13.2686
13.6424
13.9712
14.2549
14.4938
14.6883
14.8391
14.9472
15.0135
15.0393
15.0261
14.9752
14.8884
14.7674
14.6141
14.4303
14.2182
13.9797
13.717
13.4321
13.1272
12.8045
12.4661
12.114
11.7504
11.3772
10.9964
10.6098
10.2193
9.82665
9.4334
9.04112
8.65123
8.26508
7.88388
7.50878
7.14078
6.78079
6.42963
6.088
5.75652
5.43569
5.12595
4.82762
4.54095
4.26613
4.00325
3.75236
3.51341
3.28634
3.071
2.86721
2.67475
2.49336
2.32276
2.16264
2.01265
1.87244
1.74166
1.61992
1.50685
1.40208
1.30521
1.21588
1.13372
1.05837
0.989474
0.92671
0.869754
0.818302
0.772069
0.730788
0.694212
0.662115
0.634293
0.610564
0.590766
0.57476
0.562425
0.553656
0.548539
0.549284
2982.99
-514.025
-192.359
-40.5012
-5.70523
2.20586
4.81693
6.18655
7.16318
7.98685
8.73792
9.44252
10.1078
10.7349
11.3226
11.8698
12.3749
12.8369
13.2549
13.6282
13.9565
14.2398
14.4783
14.6726
14.8232
14.931
14.9972
15.0229
15.0096
14.9588
14.872
14.7511
14.5979
14.4144
14.2024
13.9642
13.7017
13.4171
13.1125
12.7901
12.4519
12.1001
11.7368
11.3638
10.9833
10.597
10.2068
9.81432
9.42129
9.0292
8.6395
8.25351
7.87246
7.49748
7.12959
6.76969
6.41861
6.07704
5.74559
5.42479
5.11505
4.8167
4.53002
4.25516
3.99224
3.74128
3.50227
3.27512
3.05969
2.85581
2.66325
2.48176
2.31106
2.15082
2.00072
1.8604
1.7295
1.60765
1.49446
1.38957
1.2926
1.20316
1.12089
1.04543
0.976442
0.913581
0.856532
0.804992
0.758674
0.717313
0.680662
0.648496
0.620609
0.596818
0.576965
0.560909
0.54853
0.539723
0.53457
0.53516
2981.5
-515.782
-193.118
-40.6175
-5.74364
2.13901
4.74735
6.13046
7.12066
7.95385
8.71104
9.41958
10.0874
10.716
11.3047
11.8523
12.3576
12.8197
13.2376
13.6108
13.939
14.2222
14.4607
14.6548
14.8054
14.9133
14.9796
15.0054
14.9922
14.9416
14.855
14.7344
14.5815
14.3983
14.1867
13.9488
13.6867
13.4025
13.0984
12.7764
12.4386
12.0873
11.7243
11.3518
10.9716
10.5857
10.1959
9.80375
9.41103
9.01924
8.62981
8.24408
7.86326
7.48848
7.12077
6.76104
6.41008
6.06862
5.73727
5.41654
5.10685
4.80854
4.52187
4.24702
3.98408
3.7331
3.49404
3.26684
3.05135
2.8474
2.65476
2.47319
2.30239
2.14206
1.99186
1.85144
1.72043
1.59848
1.48519
1.3802
1.28312
1.19358
1.11121
1.03566
0.966571
0.90362
0.846484
0.79486
0.748464
0.707028
0.670308
0.638076
0.610128
0.586283
0.566379
0.550279
0.53786
0.52902
0.523835
0.524298
2973.6
-524.962
-197.75
-41.6645
-5.82235
2.12949
4.68886
6.04406
7.02331
7.85215
8.60789
9.31666
9.9858
10.6163
11.2074
11.7579
12.2666
12.7324
13.1545
13.5322
13.8651
14.1532
14.3964
14.5953
14.7503
14.8624
14.9326
14.9621
14.9522
14.9046
14.8208
14.7027
14.552
14.3708
14.1611
13.9249
13.6643
13.3815
13.0787
12.7579
12.4213
12.071
11.709
11.3374
10.9581
10.573
10.1839
9.79244
9.40037
9.00918
8.6203
8.23507
7.85471
7.48036
7.11302
6.75363
6.40298
6.06179
5.73067
5.41014
5.10062
4.80246
4.5159
4.24114
3.97827
3.72733
3.48831
3.26111
3.04562
2.84165
2.64898
2.46736
2.29651
2.13612
1.98585
1.84536
1.71428
1.59224
1.47887
1.37379
1.27662
1.187
1.10454
1.02891
0.959738
0.896707
0.839494
0.787796
0.74133
0.699828
0.663045
0.630756
0.602755
0.578861
0.558914
0.542774
0.530322
0.521455
0.516247
0.516619
2956.36
-555.591
-215.976
-46.8555
-6.29509
2.43223
4.87819
6.06676
6.92683
7.66584
8.3488
8.99953
9.62563
10.2278
10.804
11.3512
11.8661
12.3458
12.7876
13.1892
13.5487
13.8647
14.1363
14.363
14.5448
14.6821
14.7755
14.826
14.835
14.8041
14.7349
14.6294
14.4896
14.3177
14.1158
13.8862
13.6313
13.3532
13.0543
12.7369
12.4031
12.0551
11.6952
11.3253
10.9475
10.5637
10.1757
9.78528
9.39406
9.00362
8.61539
8.23073
7.85087
7.47695
7.10999
6.75091
6.40052
6.05955
5.72862
5.40823
5.09882
4.80073
4.51423
4.23949
3.97662
3.72567
3.4866
3.25936
3.0438
2.83975
2.64699
2.46528
2.29433
2.13383
1.98345
1.84284
1.71164
1.58949
1.476
1.3708
1.27352
1.18378
1.10122
1.02548
0.956212
0.893085
0.83578
0.783996
0.737448
0.695871
0.659019
0.626665
0.598606
0.574661
0.554668
0.538489
0.526003
0.517112
0.511906
0.512318
3387.29
-475.223
-198.013
-40.4921
-3.50702
3.70662
5.55602
6.59187
7.49452
8.34692
9.15618
9.92105
10.6395
11.3097
11.9303
12.5004
13.0196
13.4877
13.9049
14.2717
14.5889
14.8574
15.0781
15.2524
15.3815
15.4667
15.5097
15.512
15.4753
15.4012
15.2917
15.1485
14.9737
14.7692
14.537
14.2793
13.9981
13.6956
13.3739
13.0351
12.6814
12.3148
11.9373
11.5509
11.1576
10.7593
10.3576
9.95434
9.55107
9.14931
8.75047
8.35585
7.96667
7.58402
7.2089
6.84219
6.48469
6.13708
5.79995
5.47381
5.15904
4.85598
4.56486
4.28584
4.019
3.76438
3.52193
3.29154
3.07309
2.86638
2.67117
2.4872
2.31417
2.15176
1.99963
1.85742
1.72475
1.60126
1.48655
1.38024
1.28194
1.19128
1.10787
1.03137
0.961411
0.897661
0.839795
0.787506
0.740507
0.698527
0.661316
0.628647
0.600311
0.576124
0.555924
0.539569
0.526937
0.51794
0.512764
0.513834
)
;

boundaryField
{
    xmin
    {
        type            calculated;
        value           uniform 0;
    }
    xmax
    {
        type            calculated;
        value           nonuniform List<scalar> 
100
(
2963.88
-415.817
-173.257
-35.4246
-3.06104
3.25257
4.87245
5.78047
6.57191
7.31938
8.02907
8.6999
9.3301
9.91806
10.4626
10.9629
11.4186
11.8296
12.196
12.5184
12.7972
13.0334
13.2278
13.3815
13.4956
13.5713
13.61
13.6131
13.5819
13.5181
13.4232
13.2989
13.1468
12.9687
12.7663
12.5416
12.2963
12.0323
11.7515
11.4557
11.1468
10.8265
10.4968
10.1593
9.81563
9.46753
9.11651
8.76407
8.4116
8.06043
7.7118
7.36684
7.02662
6.6921
6.36414
6.04354
5.73097
5.42705
5.13229
4.84712
4.5719
4.30692
4.05237
3.8084
3.57508
3.35245
3.14045
2.93902
2.74802
2.56728
2.39661
2.23577
2.0845
1.94253
1.80954
1.68524
1.56929
1.46136
1.36112
1.26823
1.18235
1.10316
1.03032
0.963519
0.902449
0.846814
0.796331
0.750733
0.709765
0.673193
0.640799
0.612382
0.587762
0.566777
0.549284
0.53516
0.524298
0.516619
0.512318
0.513834
)
;
    }
    ymin
    {
        type            calculated;
        value           uniform 0;
    }
    ymax
    {
        type            calculated;
        value           nonuniform List<scalar> 
100
(
3387.29
-475.223
-198.013
-40.4921
-3.50702
3.70662
5.55602
6.59187
7.49452
8.34692
9.15618
9.92105
10.6395
11.3097
11.9303
12.5004
13.0196
13.4877
13.9049
14.2717
14.5889
14.8574
15.0781
15.2524
15.3815
15.4667
15.5097
15.512
15.4753
15.4012
15.2917
15.1485
14.9737
14.7692
14.537
14.2793
13.9981
13.6956
13.3739
13.0351
12.6814
12.3148
11.9373
11.5509
11.1576
10.7593
10.3576
9.95434
9.55107
9.14931
8.75047
8.35585
7.96667
7.58402
7.2089
6.84219
6.48469
6.13708
5.79995
5.47381
5.15904
4.85598
4.56486
4.28584
4.019
3.76438
3.52193
3.29154
3.07309
2.86638
2.67117
2.4872
2.31417
2.15176
1.99963
1.85742
1.72475
1.60126
1.48655
1.38024
1.28194
1.19128
1.10787
1.03137
0.961411
0.897661
0.839795
0.787506
0.740507
0.698527
0.661316
0.628647
0.600311
0.576124
0.555924
0.539569
0.526937
0.51794
0.512764
0.513834
)
;
    }
    frontAndBack
    {
        type            empty;
    }
}


// ************************************************************************* //
