/*--------------------------------*- C++ -*----------------------------------*\
  =========                 |
  \\      /  F ield         | OpenFOAM: The Open Source CFD Toolbox
   \\    /   O peration     | Website:  https://openfoam.org
    \\  /    A nd           | Version:  10
     \\/     M anipulation  |
\*---------------------------------------------------------------------------*/
FoamFile
{
    format      ascii;
    class       volScalarField;
    location    "1.5";
    object      ddt0(T);
}
// * * * * * * * * * * * * * * * * * * * * * * * * * * * * * * * * * * * * * //

dimensions      [0 0 -1 1 0 0 0];

internalField   nonuniform List<scalar> 
10000
(
8437.54
4540.22
4405.8
4466.44
4492.94
4501.39
4504.06
4505.06
4505.56
4505.89
4506.15
4506.36
4506.54
4506.68
4506.78
4506.85
4506.9
4506.92
4506.92
4506.9
4506.86
4506.81
4506.76
4506.69
4506.62
4506.55
4506.48
4506.41
4506.34
4506.28
4506.22
4506.16
4506.11
4506.06
4506.02
4505.98
4505.95
4505.92
4505.9
4505.88
4505.86
4505.84
4505.83
4505.82
4505.81
4505.8
4505.8
4505.79
4505.79
4505.79
4505.79
4505.78
4505.78
4505.78
4505.78
4505.78
4505.78
4505.78
4505.78
4505.78
4505.78
4505.78
4505.78
4505.78
4505.78
4505.78
4505.78
4505.78
4505.78
4505.78
4505.78
4505.78
4505.78
4505.78
4505.78
4505.78
4505.78
4505.78
4505.78
4505.78
4505.78
4505.78
4505.78
4505.78
4505.78
4505.78
4505.78
4505.77
4505.77
4505.77
4505.76
4505.76
4505.74
4505.7
4505.56
4505.01
4503.04
4499.5
4544.37
5424.37
5210.01
-600.48
-739.304
-575.482
-503.608
-479.785
-472.012
-469.07
-467.587
-466.597
-465.826
-465.196
-464.682
-464.274
-463.964
-463.746
-463.611
-463.55
-463.555
-463.616
-463.723
-463.868
-464.041
-464.235
-464.442
-464.656
-464.871
-465.082
-465.286
-465.481
-465.663
-465.832
-465.986
-466.125
-466.25
-466.361
-466.458
-466.543
-466.616
-466.678
-466.731
-466.776
-466.814
-466.845
-466.871
-466.892
-466.909
-466.923
-466.934
-466.943
-466.95
-466.956
-466.96
-466.963
-466.966
-466.968
-466.969
-466.97
-466.971
-466.971
-466.972
-466.972
-466.972
-466.971
-466.971
-466.97
-466.97
-466.969
-466.968
-466.967
-466.966
-466.965
-466.964
-466.963
-466.962
-466.961
-466.96
-466.959
-466.958
-466.958
-466.958
-466.958
-466.959
-466.962
-466.965
-466.969
-466.975
-466.982
-466.992
-467.003
-467.018
-467.038
-467.075
-467.169
-467.481
-468.615
-472.597
-484.033
-494.738
-301.818
5072.7
-757.803
-774.916
-540.222
-439.934
-406.027
-394.615
-390.126
-387.776
-386.17
-384.906
-383.869
-383.023
-382.35
-381.841
-381.482
-381.262
-381.164
-381.175
-381.278
-381.458
-381.7
-381.989
-382.312
-382.657
-383.012
-383.37
-383.721
-384.061
-384.384
-384.687
-384.967
-385.223
-385.455
-385.662
-385.846
-386.008
-386.148
-386.27
-386.374
-386.462
-386.537
-386.599
-386.651
-386.694
-386.729
-386.758
-386.781
-386.799
-386.814
-386.826
-386.835
-386.842
-386.848
-386.852
-386.855
-386.858
-386.859
-386.86
-386.861
-386.862
-386.862
-386.862
-386.861
-386.861
-386.86
-386.859
-386.858
-386.856
-386.855
-386.853
-386.851
-386.849
-386.847
-386.845
-386.843
-386.842
-386.84
-386.839
-386.838
-386.838
-386.839
-386.841
-386.844
-386.849
-386.856
-386.866
-386.877
-386.892
-386.911
-386.934
-386.965
-387.015
-387.123
-387.431
-388.437
-391.747
-401.574
-422.84
-419.633
5117.08
-626.397
-576.796
-308.405
-194.058
-154.647
-140.945
-135.299
-132.205
-130.029
-128.299
-126.874
-125.71
-124.787
-124.09
-123.602
-123.304
-123.177
-123.2
-123.35
-123.607
-123.949
-124.355
-124.808
-125.29
-125.788
-126.288
-126.779
-127.253
-127.704
-128.126
-128.517
-128.875
-129.198
-129.487
-129.743
-129.969
-130.165
-130.334
-130.479
-130.602
-130.706
-130.793
-130.865
-130.925
-130.974
-131.014
-131.046
-131.072
-131.092
-131.109
-131.121
-131.132
-131.139
-131.145
-131.15
-131.153
-131.155
-131.157
-131.158
-131.159
-131.159
-131.159
-131.158
-131.157
-131.156
-131.155
-131.153
-131.151
-131.149
-131.147
-131.144
-131.142
-131.139
-131.136
-131.133
-131.131
-131.128
-131.127
-131.125
-131.125
-131.126
-131.129
-131.133
-131.14
-131.149
-131.162
-131.178
-131.198
-131.223
-131.254
-131.293
-131.35
-131.451
-131.684
-132.335
-134.269
-139.718
-152.275
-166.531
5138.15
-566.7
-491.108
-209.162
-88.5899
-46.3569
-31.2278
-24.7053
-20.9664
-18.2682
-16.0993
-14.3087
-12.8468
-11.6899
-10.8188
-10.2125
-9.84787
-9.69951
-9.74043
-9.94296
-10.2795
-10.7232
-11.2486
-11.8323
-12.453
-13.092
-13.7331
-14.3629
-14.9707
-15.548
-16.0888
-16.5889
-17.046
-17.4593
-17.8292
-18.1571
-18.4451
-18.6958
-18.9123
-19.0977
-19.2552
-19.388
-19.4992
-19.5916
-19.6678
-19.7303
-19.7811
-19.8222
-19.8552
-19.8815
-19.9024
-19.9188
-19.9316
-19.9415
-19.949
-19.9548
-19.959
-19.9621
-19.9642
-19.9656
-19.9663
-19.9665
-19.9662
-19.9656
-19.9645
-19.9631
-19.9614
-19.9593
-19.9569
-19.9542
-19.9513
-19.948
-19.9446
-19.941
-19.9373
-19.9337
-19.9303
-19.9273
-19.9249
-19.9233
-19.9228
-19.9238
-19.9267
-19.9319
-19.9399
-19.9511
-19.9662
-19.9857
-20.0103
-20.0407
-20.0782
-20.125
-20.187
-20.2808
-20.4533
-20.8384
-21.8056
-24.2623
-29.7006
-37.5279
5145.1
-546.555
-461.846
-174.689
-51.3521
-7.59104
8.50015
15.7259
20.0334
23.2113
25.787
27.9174
29.6551
31.0268
32.0552
32.7653
33.185
33.3452
33.2784
33.0178
32.5969
32.048
31.4016
30.6861
29.927
29.147
28.3652
27.598
26.8581
26.1558
25.4983
24.8905
24.3351
23.8331
23.3839
22.9858
22.6362
22.3318
22.0691
21.8441
21.653
21.4919
21.357
21.2449
21.1524
21.0767
21.015
20.9651
20.9251
20.8932
20.8679
20.848
20.8325
20.8205
20.8113
20.8044
20.7992
20.7955
20.7929
20.7912
20.7904
20.7901
20.7904
20.7912
20.7924
20.7941
20.7962
20.7987
20.8016
20.8048
20.8084
20.8124
20.8166
20.821
20.8254
20.8299
20.8342
20.838
20.8412
20.8434
20.8444
20.8436
20.8407
20.8351
20.8263
20.8137
20.7966
20.7744
20.7463
20.7115
20.6688
20.6163
20.5499
20.4591
20.3179
20.0655
19.5635
18.5116
16.4304
13.209
5147.39
-539.811
-451.787
-162.458
-37.725
6.99427
23.8118
31.6333
36.4491
40.0646
43.0131
45.4539
47.4419
49.006
50.1723
50.9697
51.431
51.5917
51.4899
51.1645
50.654
49.9962
49.2267
48.3782
47.4805
46.5598
45.6384
44.7351
43.8649
43.0394
42.267
41.5533
40.9014
40.3124
39.7856
39.3187
38.9089
38.5522
38.2443
37.9807
37.7567
37.5679
37.4099
37.2786
37.1703
37.0816
37.0094
36.951
36.9041
36.8668
36.8372
36.8139
36.7957
36.7817
36.7709
36.7628
36.7567
36.7523
36.7493
36.7473
36.7463
36.7459
36.7463
36.7472
36.7486
36.7506
36.753
36.7559
36.7592
36.763
36.7672
36.7718
36.7768
36.7819
36.7873
36.7926
36.7977
36.8025
36.8065
36.8095
36.8111
36.8108
36.8082
36.8026
36.7935
36.7802
36.7619
36.7378
36.7072
36.6692
36.6227
36.5663
36.497
36.4081
36.2841
36.0925
35.7762
35.2492
34.4266
33.2097
5148.29
-537.138
-447.659
-157.208
-31.6046
13.8204
31.2364
39.5787
44.8501
48.8607
52.1453
54.8644
57.0741
58.8058
60.0886
60.9552
61.4427
61.5916
61.4451
61.0471
60.4415
59.6711
58.7759
57.7934
56.7569
55.6961
54.6364
53.5987
52.6
51.6535
50.7684
49.9511
49.2049
48.5309
47.9283
47.3944
46.9259
46.5182
46.1663
45.8651
45.6093
45.3937
45.2132
45.0633
44.9396
44.8383
44.7559
44.6892
44.6357
44.5931
44.5593
44.5327
44.512
44.4959
44.4836
44.4743
44.4674
44.4624
44.4589
44.4567
44.4554
44.455
44.4554
44.4564
44.458
44.4602
44.4629
44.4662
44.4699
44.4742
44.479
44.4843
44.4899
44.4959
44.5021
44.5083
44.5143
44.52
44.525
44.5289
44.5314
44.5319
44.5299
44.5248
44.5159
44.5024
44.4836
44.4587
44.4267
44.3868
44.3379
44.2788
44.2077
44.1202
44.0065
43.8452
43.599
43.2295
42.7837
42.3992
5148.77
-535.708
-445.377
-154.181
-27.925
18.0774
36.0088
44.8104
50.4872
54.8492
58.4312
61.394
63.795
65.6676
67.044
67.9603
68.4579
68.5819
68.3801
67.9017
67.1954
66.3083
65.2853
64.1677
62.9925
61.7926
60.596
59.426
58.3012
57.236
56.2408
55.3223
54.4842
53.7276
53.0513
52.4524
51.9269
51.4698
51.0754
50.7378
50.4511
50.2095
50.0074
49.8395
49.7009
49.5875
49.4952
49.4205
49.3606
49.3129
49.275
49.2453
49.2221
49.2041
49.1903
49.1799
49.1721
49.1665
49.1626
49.1601
49.1586
49.1582
49.1585
49.1596
49.1614
49.1638
49.1668
49.1704
49.1746
49.1793
49.1847
49.1905
49.1969
49.2036
49.2106
49.2177
49.2247
49.2314
49.2374
49.2424
49.2459
49.2475
49.2464
49.2422
49.234
49.2211
49.2027
49.1778
49.1456
49.1051
49.0552
48.9949
48.9229
48.8364
48.7291
48.5846
48.3676
48.0298
47.6345
47.6654
5149.11
-534.706
-443.747
-151.966
-25.1719
21.3243
39.7047
48.9093
54.9416
59.6102
63.4492
66.6198
69.1803
71.1661
72.6121
73.558
74.049
74.1345
73.8671
73.3002
72.4873
71.48
70.3271
69.0736
67.7601
66.4224
65.0908
63.7907
62.5425
61.3615
60.259
59.2422
58.3149
57.4781
56.7305
56.0687
55.4882
54.9834
54.5479
54.1753
53.8589
53.5923
53.3693
53.1841
53.0313
52.9062
52.8044
52.7221
52.656
52.6034
52.5616
52.5288
52.5032
52.4834
52.4682
52.4567
52.4482
52.4419
52.4376
52.4348
52.4332
52.4326
52.433
52.4341
52.436
52.4386
52.4418
52.4458
52.4503
52.4555
52.4614
52.4678
52.4748
52.4822
52.4901
52.4981
52.506
52.5138
52.5209
52.5271
52.5318
52.5346
52.5349
52.532
52.525
52.5134
52.4961
52.4722
52.4409
52.401
52.3516
52.2917
52.2201
52.1351
52.0324
51.8987
51.6976
51.3581
50.9074
51.2097
5149.38
-533.901
-442.426
-150.155
-22.9018
24.0199
42.7886
52.3413
58.679
63.6088
67.6639
71.0055
73.6931
75.7639
77.2554
78.2105
78.6782
78.7119
78.3682
77.7052
76.7803
75.6492
74.3646
72.975
71.524
70.0501
68.5858
67.1584
65.7897
64.496
63.2894
62.1773
61.1638
60.2497
59.4333
58.711
58.0776
57.5269
57.052
56.6458
56.3009
56.0104
55.7674
55.5656
55.3991
55.2628
55.152
55.0624
54.9904
54.9331
54.8877
54.8519
54.8241
54.8025
54.7859
54.7734
54.764
54.7573
54.7525
54.7494
54.7476
54.747
54.7473
54.7485
54.7505
54.7532
54.7567
54.7609
54.7658
54.7714
54.7777
54.7846
54.7922
54.8004
54.809
54.8178
54.8268
54.8356
54.8439
54.8514
54.8575
54.8618
54.8637
54.8624
54.8572
54.8474
54.8319
54.81
54.7805
54.7426
54.6952
54.6372
54.5677
54.4853
54.3871
54.262
54.0732
53.7288
53.2007
53.7117
5149.61
-533.226
-441.316
-148.629
-20.9846
26.2997
45.3984
55.2454
61.8389
66.9845
71.2147
74.6907
77.4731
79.601
81.114
82.0584
82.4863
82.4551
82.0253
81.2588
80.2169
78.9591
77.5416
76.016
74.4288
72.8206
71.2264
69.6748
68.1889
66.786
65.4787
64.2747
63.1782
62.1897
61.3074
60.527
59.843
59.2484
58.7359
58.2975
57.9255
57.6121
57.35
57.1324
56.953
56.8061
56.6865
56.59
56.5125
56.4507
56.4017
56.3632
56.3332
56.3099
56.2921
56.2785
56.2685
56.2611
56.256
56.2526
56.2506
56.2499
56.2502
56.2514
56.2535
56.2563
56.26
56.2644
56.2695
56.2755
56.2822
56.2896
56.2978
56.3066
56.3159
56.3256
56.3356
56.3455
56.355
56.3638
56.3715
56.3774
56.3811
56.3818
56.3789
56.3714
56.3585
56.3392
56.3127
56.2778
56.2336
56.1791
56.1132
56.0351
55.9422
55.8256
55.6487
55.3046
54.7088
55.3856
5149.8
-532.661
-440.385
-147.35
-19.3777
28.2089
47.5812
57.6696
64.4704
69.7873
74.1524
77.7272
80.573
82.7307
84.2423
85.1567
85.5294
85.421
84.8958
84.0191
82.856
81.4692
79.9181
78.2572
76.5353
74.7956
73.0745
71.4022
69.8028
68.2945
66.8902
65.598
64.4218
63.3622
62.4168
61.581
60.8486
60.2123
59.6639
59.195
58.7972
58.4621
58.1819
57.9494
57.7576
57.6006
57.4729
57.3698
57.287
57.221
57.1687
57.1276
57.0955
57.0706
57.0515
57.0371
57.0263
57.0184
57.0129
57.0092
57.0071
57.0062
57.0065
57.0077
57.0098
57.0128
57.0165
57.0211
57.0265
57.0328
57.0398
57.0477
57.0564
57.0657
57.0758
57.0863
57.0972
57.1081
57.1189
57.1291
57.1383
57.1461
57.1518
57.1548
57.1543
57.1496
57.1398
57.124
57.1012
57.0704
57.0306
56.9809
56.9203
56.8479
56.7618
56.6543
56.4901
56.1524
55.5096
56.3138
5149.95
-532.196
-439.62
-146.3
-18.0607
29.7705
49.3619
59.6411
66.6021
72.0477
76.5093
80.1485
83.0278
85.1896
86.678
87.5445
87.8474
87.6507
87.0218
86.0293
84.7414
83.2241
81.5394
79.7444
77.8903
76.0219
74.1775
72.3884
70.6796
69.0699
67.5726
66.1959
64.9437
63.8162
62.8108
61.9224
61.1442
60.4682
59.8859
59.3881
58.9658
58.6103
58.313
58.0663
57.863
57.6965
57.5611
57.4517
57.3639
57.294
57.2385
57.195
57.1609
57.1346
57.1143
57.099
57.0875
57.0792
57.0732
57.0693
57.067
57.066
57.0662
57.0674
57.0695
57.0725
57.0764
57.0812
57.0868
57.0932
57.1006
57.1088
57.1179
57.1278
57.1384
57.1497
57.1615
57.1734
57.1854
57.197
57.2079
57.2175
57.2254
57.2308
57.2332
57.2316
57.2254
57.2135
57.1951
57.1692
57.1349
57.0911
57.037
56.9718
56.894
56.7966
56.6461
56.3207
55.6535
56.5487
5150.08
-531.826
-439.011
-145.465
-17.0168
31.0044
50.7633
61.1852
68.2623
73.7962
78.318
81.9896
84.8745
87.0164
88.4616
89.2638
89.484
89.1891
88.4493
87.3363
85.9213
84.2727
82.4551
80.528
78.5444
76.551
74.5872
72.6854
70.8715
69.1648
67.5787
66.1215
64.797
63.6052
62.5429
61.6047
60.7832
60.0699
59.4555
58.9305
58.4853
58.1104
57.7972
57.5372
57.3229
57.1475
57.0049
56.8897
56.7973
56.7236
56.6652
56.6193
56.5835
56.5557
56.5344
56.5182
56.5061
56.4973
56.491
56.4868
56.4843
56.4832
56.4833
56.4844
56.4866
56.4896
56.4935
56.4984
56.5041
56.5108
56.5183
56.5269
56.5363
56.5467
56.5579
56.5698
56.5823
56.5953
56.6084
56.6214
56.6339
56.6454
56.6555
56.6635
56.6688
56.6706
56.6682
56.6608
56.6473
56.627
56.5988
56.5619
56.5154
56.4586
56.3901
56.304
56.1682
55.8599
55.1895
56.1422
5150.17
-531.544
-438.547
-144.832
-16.2275
31.9327
51.811
62.3309
69.4829
75.0679
79.6165
83.2911
86.1561
88.2565
89.6405
90.3639
90.4902
90.0887
89.2323
87.9954
86.4516
84.6718
82.723
80.6663
78.5567
76.4422
74.3634
72.3536
70.4392
68.64
66.9695
65.436
64.0431
62.7905
61.6746
60.6894
59.8272
59.0788
58.4344
57.8839
57.4171
57.0242
56.6959
56.4236
56.1991
56.0154
55.866
55.7454
55.6486
55.5714
55.5103
55.4623
55.4248
55.3957
55.3733
55.3564
55.3437
55.3344
55.3278
55.3233
55.3206
55.3194
55.3194
55.3205
55.3226
55.3256
55.3296
55.3345
55.3403
55.347
55.3548
55.3635
55.3733
55.384
55.3956
55.4081
55.4214
55.4352
55.4494
55.4637
55.4777
55.4911
55.5034
55.514
55.5223
55.5277
55.5293
55.5265
55.5184
55.504
55.4826
55.4532
55.4151
55.3675
55.3095
55.2354
55.1152
54.8281
54.1725
55.1525
5150.24
-531.342
-438.217
-144.383
-15.6721
32.5803
52.5343
63.1114
70.301
75.9031
80.4484
84.0997
86.9221
88.9619
90.269
90.9012
90.9241
90.4093
89.432
88.069
86.396
84.4863
82.4084
80.2255
77.9939
75.7627
73.5736
71.4607
69.4507
67.5637
65.8133
64.2078
62.7505
61.4407
60.2744
59.2453
58.3449
57.5637
56.8913
56.317
55.8301
55.4205
55.0782
54.7943
54.5604
54.3689
54.2133
54.0876
53.9868
53.9064
53.8428
53.7927
53.7536
53.7233
53.7
53.6824
53.6691
53.6594
53.6524
53.6477
53.6449
53.6435
53.6434
53.6444
53.6464
53.6494
53.6534
53.6583
53.6641
53.6709
53.6788
53.6876
53.6976
53.7085
53.7206
53.7335
53.7474
53.762
53.7771
53.7926
53.8081
53.8232
53.8376
53.8508
53.8621
53.871
53.8768
53.8787
53.876
53.8678
53.8535
53.832
53.8028
53.7651
53.718
53.6566
53.5528
53.2899
52.6636
53.6453
5150.28
-531.213
-438.007
-144.101
-15.3276
32.9751
52.9654
63.5632
70.757
76.3464
80.862
84.4668
87.2269
89.1898
90.4069
90.9377
90.8497
90.2165
89.1156
87.6255
85.8242
83.7864
81.5827
79.2774
76.9282
74.5853
72.291
70.08
67.9795
66.0096
64.1841
62.5109
60.9932
59.6298
58.4166
57.3464
56.4105
55.5988
54.9003
54.3039
53.7984
53.3732
53.018
52.7234
52.4807
52.2821
52.1207
51.9904
51.8858
51.8025
51.7365
51.6846
51.644
51.6126
51.5885
51.5701
51.5563
51.5462
51.5389
51.534
51.5309
51.5294
51.5292
51.5301
51.5321
51.535
51.5389
51.5437
51.5495
51.5564
51.5642
51.5732
51.5832
51.5944
51.6066
51.62
51.6343
51.6495
51.6655
51.682
51.6988
51.7156
51.732
51.7475
51.7617
51.774
51.7838
51.7904
51.7932
51.7913
51.784
51.7706
51.7504
51.7228
51.687
51.6386
51.5516
51.3152
50.7292
51.6912
5150.31
-531.149
-437.904
-143.966
-15.1696
33.1465
53.1385
63.7253
70.8944
76.4452
80.9081
84.4469
87.1282
89.0008
90.1172
90.5386
90.3343
89.5796
88.3536
86.7369
84.8089
82.6461
80.3203
77.8972
75.4355
72.986
70.592
68.2883
66.1025
64.0548
62.1587
60.4223
58.8482
57.435
56.1781
55.0698
54.101
53.261
52.5384
51.9215
51.3989
50.9593
50.5922
50.2878
50.037
49.8319
49.6651
49.5305
49.4225
49.3365
49.2683
49.2147
49.1728
49.1404
49.1154
49.0964
49.0822
49.0716
49.0641
49.0589
49.0557
49.054
49.0536
49.0544
49.0563
49.0591
49.0629
49.0677
49.0734
49.0802
49.088
49.097
49.107
49.1183
49.1307
49.1442
49.1589
49.1746
49.1913
49.2086
49.2266
49.2448
49.2629
49.2807
49.2976
49.3131
49.3267
49.3378
49.3458
49.35
49.3497
49.3443
49.3331
49.3155
49.291
49.2555
49.1853
48.9769
48.439
49.3643
5150.31
-531.141
-437.894
-143.959
-15.1727
33.125
53.0892
63.6377
70.7576
76.248
80.6394
84.096
86.6852
88.4568
89.4645
89.771
89.4468
88.5689
87.2181
85.4763
83.4245
81.1405
78.6972
76.1614
73.5924
71.0421
68.5538
66.163
63.8972
61.7767
59.815
58.0197
56.3933
54.934
53.6366
52.4931
51.4939
50.6279
49.883
49.2474
48.709
48.2562
47.8782
47.5648
47.3066
47.0954
46.9238
46.7853
46.6742
46.5856
46.5155
46.4603
46.4172
46.3838
46.3581
46.3386
46.3239
46.313
46.3052
46.2998
46.2963
46.2945
46.294
46.2947
46.2964
46.2991
46.3028
46.3074
46.3131
46.3197
46.3274
46.3363
46.3463
46.3575
46.3699
46.3836
46.3985
46.4146
46.4317
46.4498
46.4686
46.488
46.5077
46.5274
46.5467
46.5652
46.5823
46.5976
46.6105
46.6205
46.6268
46.629
46.6264
46.6186
46.6049
46.582
46.5282
46.3483
45.8636
46.7394
5150.3
-531.181
-437.961
-144.06
-15.3119
32.941
52.8527
63.3405
70.3912
75.8034
80.1082
83.47
85.9569
87.6197
88.5132
88.7011
88.2554
87.2545
85.7804
83.9164
81.7446
79.3439
76.7882
74.1451
71.4748
68.8294
66.2527
63.7804
61.44
59.2519
57.2292
55.3794
53.7047
52.2028
50.8681
49.6924
48.6653
47.7753
47.0102
46.3574
45.8045
45.3397
44.9517
44.63
44.3651
44.1485
43.9725
43.8304
43.7164
43.6256
43.5536
43.4971
43.4529
43.4186
43.3922
43.3721
43.357
43.3458
43.3377
43.3321
43.3285
43.3265
43.3258
43.3264
43.328
43.3305
43.3341
43.3386
43.344
43.3505
43.3581
43.3668
43.3766
43.3877
43.4001
43.4137
43.4287
43.4449
43.4623
43.4809
43.5005
43.5209
43.5418
43.5632
43.5845
43.6055
43.6258
43.6449
43.6623
43.6775
43.69
43.6992
43.7047
43.706
43.7027
43.6917
43.6535
43.502
43.0728
43.8901
5150.27
-531.259
-438.093
-144.249
-15.5622
32.6242
52.4637
62.8729
69.8383
75.1588
79.3653
82.6229
85.0004
86.5493
87.3253
87.3933
86.8264
85.704
84.1094
82.1269
79.8397
77.3275
74.6652
71.9208
69.1551
66.4206
63.7615
61.2134
58.8039
56.5531
54.4742
52.5743
50.8551
49.3141
47.9454
46.74
45.6875
44.7757
43.992
43.3236
42.7576
42.2819
41.8848
41.5557
41.2847
41.0631
40.883
40.7377
40.6211
40.5282
40.4547
40.3968
40.3516
40.3166
40.2896
40.269
40.2535
40.242
40.2337
40.2279
40.2241
40.2219
40.2211
40.2215
40.2229
40.2253
40.2287
40.233
40.2383
40.2445
40.2519
40.2603
40.27
40.2809
40.2931
40.3066
40.3215
40.3377
40.3553
40.3741
40.3941
40.4152
40.4371
40.4598
40.4828
40.506
40.529
40.5513
40.5727
40.5926
40.6106
40.6262
40.639
40.6487
40.6548
40.6547
40.6312
40.5071
40.1337
40.8869
5150.23
-531.367
-438.275
-144.508
-15.9004
32.2029
51.9549
62.272
69.1403
74.3589
78.4592
81.6064
83.87
85.3022
85.9597
85.9083
85.2219
83.9811
82.2699
80.1737
77.7764
75.1586
72.3956
69.5562
66.7014
63.884
61.1483
58.5301
56.0568
53.7484
51.6179
49.672
47.9122
46.3356
44.9358
43.7035
42.6278
41.6963
40.8958
40.2132
39.6354
39.1497
38.7444
38.4086
38.1321
37.906
37.7223
37.5741
37.4552
37.3604
37.2854
37.2264
37.1803
37.1446
37.117
37.096
37.0802
37.0684
37.0598
37.0538
37.0498
37.0475
37.0466
37.0468
37.048
37.0503
37.0534
37.0575
37.0625
37.0686
37.0756
37.0838
37.0932
37.1038
37.1157
37.1289
37.1436
37.1597
37.1772
37.1961
37.2163
37.2378
37.2605
37.284
37.3084
37.3333
37.3584
37.3835
37.4082
37.4321
37.4549
37.4761
37.4954
37.5124
37.527
37.5367
37.5266
37.4283
37.1094
37.7956
5150.19
-531.499
-438.496
-144.819
-16.3044
31.7035
51.357
61.5721
68.3353
73.4456
77.4345
80.4679
82.6157
83.9309
84.4708
84.302
83.4994
82.1443
80.3214
78.117
75.6156
72.8983
70.0411
67.1131
64.1755
61.2815
58.4752
55.7924
53.2607
50.8996
48.722
46.7342
44.9375
43.3285
41.9005
40.6439
39.5472
38.5978
37.7822
37.0868
36.4983
36.0037
35.5911
35.2492
34.9677
34.7376
34.5507
34.3998
34.2789
34.1825
34.1062
34.0461
33.9992
33.9628
33.9347
33.9133
33.8972
33.8852
33.8764
33.8702
33.866
33.8635
33.8624
33.8625
33.8636
33.8656
33.8685
33.8724
33.8772
33.8829
33.8897
33.8975
33.9065
33.9167
33.9283
33.9412
33.9555
33.9713
33.9886
34.0073
34.0276
34.0492
34.0722
34.0964
34.1216
34.1477
34.1745
34.2018
34.2291
34.2563
34.2831
34.309
34.3338
34.3573
34.3791
34.3974
34.3991
34.3245
34.0573
34.6761
5150.14
-531.648
-438.743
-145.167
-16.7543
31.1498
50.6975
60.8048
67.458
72.4563
76.3317
79.2504
81.2829
82.4826
82.9075
82.625
81.7105
80.2461
78.3173
76.0108
73.4116
70.6016
67.6568
64.6467
61.6328
58.6681
55.7971
53.0554
50.4703
48.0613
45.8408
43.8151
41.985
40.3467
38.8933
37.6148
36.4993
35.5338
34.7046
33.9978
33.3997
32.8971
32.4779
32.1306
31.8447
31.611
31.4212
31.268
31.1452
31.0473
30.9698
30.9089
30.8612
30.8243
30.7958
30.774
30.7576
30.7453
30.7363
30.73
30.7256
30.723
30.7217
30.7216
30.7225
30.7243
30.727
30.7306
30.7351
30.7405
30.7469
30.7544
30.763
30.7728
30.7839
30.7963
30.8102
30.8256
30.8425
30.8609
30.8809
30.9024
30.9254
30.9498
30.9756
31.0025
31.0305
31.0592
31.0886
31.1184
31.1483
31.178
31.2073
31.236
31.2639
31.2894
31.3013
31.2481
31.0288
31.5817
5150.09
-531.806
-439.008
-145.538
-17.2326
30.5631
50.0012
59.9977
66.5391
71.4247
75.1868
77.9921
79.9114
80.9988
81.3128
80.9213
79.9004
78.3327
76.3043
73.9022
71.2121
68.3159
65.2903
62.2046
59.1207
56.0916
53.1616
50.3663
47.7328
45.2804
43.0213
40.9614
39.1011
37.4367
35.9604
34.6622
33.5299
32.5501
31.7087
30.9917
30.385
29.8754
29.4503
29.0982
28.8084
28.5715
28.3791
28.2239
28.0994
28.0002
27.9217
27.8599
27.8116
27.7741
27.7452
27.7232
27.7064
27.694
27.6848
27.6783
27.6738
27.671
27.6696
27.6693
27.67
27.6716
27.6741
27.6774
27.6816
27.6867
27.6927
27.6997
27.7079
27.7172
27.7278
27.7397
27.753
27.7678
27.7841
27.8021
27.8216
27.8428
27.8655
27.8899
27.9157
27.943
27.9716
28.0013
28.0321
28.0637
28.0959
28.1285
28.1613
28.1941
28.2269
28.2582
28.2787
28.2443
28.0683
28.5582
5150.03
-531.97
-439.28
-145.92
-17.7239
29.9618
49.2893
59.1749
65.605
70.3794
74.0305
76.7255
78.5356
79.5152
79.7235
79.2288
78.1077
76.4432
74.3219
71.8311
69.057
66.0816
62.9818
59.8272
56.6795
53.5918
50.6083
47.7646
45.0874
42.596
40.3022
38.2116
36.3245
34.6365
33.1399
31.8242
30.6769
29.6843
28.8321
28.106
27.4918
26.9759
26.5456
26.1892
25.8959
25.6562
25.4616
25.3045
25.1786
25.0782
24.9988
24.9363
24.8874
24.8495
24.8203
24.7979
24.781
24.7683
24.759
24.7523
24.7477
24.7447
24.7431
24.7427
24.7432
24.7446
24.7468
24.7499
24.7537
24.7584
24.7641
24.7707
24.7783
24.7871
24.7971
24.8084
24.8211
24.8352
24.8509
24.8682
24.8871
24.9076
24.9299
24.9539
24.9795
25.0067
25.0354
25.0656
25.0971
25.1298
25.1635
25.1981
25.2334
25.2693
25.3057
25.3415
25.3688
25.3505
25.2131
25.6439
5149.98
-532.134
-439.553
-146.302
-18.2153
29.3613
48.5798
58.3565
64.6782
69.3446
72.8888
75.478
77.184
78.0616
78.1703
77.5788
76.3643
74.6099
72.4027
69.8304
66.9791
63.9314
60.7641
57.5468
54.3414
51.2008
48.1692
45.282
42.5657
40.0393
37.7145
35.5966
33.6855
31.9767
30.462
29.1307
27.9701
26.9663
26.1046
25.3705
24.7495
24.2281
23.7933
23.4331
23.1368
22.8946
22.6979
22.5393
22.4121
22.3107
22.2305
22.1673
22.118
22.0796
22.0501
22.0275
22.0103
21.9975
21.988
21.9812
21.9764
21.9733
21.9716
21.971
21.9713
21.9725
21.9745
21.9772
21.9808
21.9851
21.9903
21.9965
22.0036
22.0118
22.0212
22.0318
22.0438
22.0572
22.0721
22.0886
22.1067
22.1265
22.148
22.1713
22.1963
22.2231
22.2515
22.2816
22.3133
22.3464
22.3809
22.4167
22.4536
22.4915
22.5304
22.5694
22.602
22.597
22.4931
22.8693
5149.92
-532.295
-439.821
-146.676
-18.6962
28.7745
47.8874
57.5592
63.7767
68.3401
71.7826
74.2719
75.8799
76.6619
76.6777
75.9965
74.6955
72.8585
70.5725
67.9257
65.0043
61.891
58.6625
55.3888
52.1314
48.9434
45.8688
42.9426
40.1915
37.6341
35.2817
33.1396
31.2072
29.48
27.9494
26.6044
25.4321
24.4183
23.5482
22.8071
22.1803
21.654
21.2152
20.8517
20.5527
20.3084
20.11
19.9499
19.8216
19.7193
19.6384
19.5747
19.5249
19.4862
19.4564
19.4335
19.4162
19.4032
19.3936
19.3866
19.3817
19.3785
19.3766
19.3758
19.376
19.377
19.3787
19.3812
19.3844
19.3884
19.3932
19.3988
19.4054
19.4131
19.4218
19.4317
19.4429
19.4555
19.4695
19.4851
19.5023
19.5212
19.5418
19.5641
19.5883
19.6143
19.6421
19.6717
19.703
19.736
19.7706
19.8067
19.8443
19.8833
19.9236
19.9646
20.0009
20.0068
19.9314
20.258
5149.87
-532.449
-440.079
-147.036
-19.1581
28.2112
47.2237
56.7958
62.9148
67.3812
70.7283
73.1241
74.641
75.3344
75.2646
74.5008
73.1207
71.2083
68.8508
66.1364
63.1517
59.9792
56.6959
53.3715
50.0678
46.8375
43.7245
40.7639
37.9819
35.3969
33.0203
30.8567
28.9057
27.1622
25.6176
24.2606
23.0781
22.0556
21.1782
20.4309
19.799
19.2685
18.8261
18.4598
18.1585
17.9123
17.7123
17.551
17.4217
17.3187
17.2372
17.173
17.1228
17.0838
17.0538
17.0307
17.0133
17.0001
16.9904
16.9833
16.9783
16.9749
16.9729
16.9719
16.9719
16.9727
16.9742
16.9764
16.9793
16.9829
16.9872
16.9924
16.9985
17.0055
17.0136
17.0228
17.0332
17.0449
17.058
17.0726
17.0888
17.1066
17.1261
17.1474
17.1704
17.1954
17.2222
17.2508
17.2813
17.3136
17.3478
17.3836
17.4211
17.4604
17.5012
17.5431
17.5818
17.5961
17.5445
17.8264
5149.82
-532.596
-440.322
-147.377
-19.5948
27.6792
46.5972
56.0761
62.1032
66.4793
69.738
72.0475
73.4805
74.0927
73.9445
73.1056
71.6537
69.6729
67.2509
64.4758
61.4342
58.2088
54.8766
51.5072
48.1622
44.8945
41.7477
38.7565
35.9473
33.3382
30.9402
28.7579
26.7906
25.0329
23.4761
22.1086
20.9171
19.887
19.0032
18.2506
17.6143
17.0801
16.6347
16.2659
15.9626
15.7147
15.5135
15.3511
15.221
15.1173
15.0352
14.9706
14.9201
14.8809
14.8506
14.8274
14.8097
14.7965
14.7866
14.7794
14.7743
14.7708
14.7687
14.7676
14.7673
14.7679
14.7692
14.7711
14.7737
14.7769
14.7809
14.7856
14.7911
14.7976
14.8049
14.8134
14.823
14.8338
14.8459
14.8595
14.8746
14.8912
14.9095
14.9295
14.9514
14.975
15.0005
15.0279
15.0573
15.0885
15.1216
15.1566
15.1934
15.2321
15.2726
15.3145
15.3543
15.3749
15.3427
15.5848
5149.78
-532.733
-440.55
-147.694
-20.0017
27.1837
46.0142
55.4068
61.3492
65.6423
68.8199
71.0506
72.4071
72.9455
72.7264
71.8195
70.303
68.261
65.7811
62.9518
59.8596
56.5873
53.2117
49.8025
46.4212
43.1204
39.9438
36.926
34.0929
31.4627
29.046
26.8474
24.8658
23.0958
21.5283
20.1518
18.9525
17.9159
17.0266
16.2693
15.6292
15.0918
14.6438
14.2729
13.9678
13.7185
13.5161
13.3529
13.222
13.1178
13.0352
12.9703
12.9195
12.88
12.8495
12.8262
12.8084
12.7951
12.7851
12.7778
12.7726
12.769
12.7667
12.7654
12.7651
12.7654
12.7665
12.7681
12.7704
12.7733
12.7769
12.7811
12.7861
12.792
12.7987
12.8064
12.8152
12.8251
12.8362
12.8487
12.8626
12.8781
12.8951
12.9137
12.9341
12.9563
12.9804
13.0063
13.0341
13.0639
13.0956
13.1292
13.1648
13.2023
13.2417
13.2828
13.3227
13.3478
13.3309
13.538
5149.74
-532.859
-440.759
-147.987
-20.3762
26.728
45.4784
54.7923
60.6574
64.8749
67.979
70.1383
71.4258
71.8977
71.615
70.6473
69.0731
66.9765
64.4453
61.5679
58.431
55.1172
51.7034
48.2592
44.8461
41.5164
38.3138
35.2727
32.4189
29.7702
27.3374
25.1246
23.1307
21.35
19.7734
18.3889
17.183
16.1407
15.2467
14.4855
13.842
13.3019
12.8517
12.4789
12.1723
11.9218
11.7185
11.5545
11.423
11.3182
11.2353
11.17
11.119
11.0793
11.0487
11.0252
11.0074
10.9939
10.9838
10.9764
10.9711
10.9674
10.965
10.9637
10.9631
10.9633
10.9641
10.9655
10.9675
10.9701
10.9733
10.9771
10.9816
10.9868
10.9929
10.9999
11.0078
11.0168
11.027
11.0384
11.0512
11.0653
11.081
11.0982
11.1171
11.1377
11.1601
11.1844
11.2105
11.2385
11.2685
11.3004
11.3342
11.3701
11.4079
11.4475
11.4867
11.5145
11.5096
11.6859
5149.7
-532.973
-440.95
-148.253
-20.7166
26.3139
44.9918
54.2343
60.0297
64.1793
67.2173
69.3125
70.5383
70.951
70.6115
69.59
67.9645
65.8197
63.2432
60.3236
57.1474
53.7973
50.3501
46.8754
43.4345
40.0797
36.8546
33.7932
30.9214
28.2569
25.8101
23.5851
21.5806
19.7907
18.2062
16.815
15.6034
14.5562
13.6581
12.8935
12.2472
11.7048
11.2526
10.8783
10.5705
10.3189
10.1148
9.95007
9.81805
9.71289
9.62962
9.5641
9.51285
9.47302
9.44226
9.41867
9.4007
9.38713
9.377
9.36952
9.36412
9.36034
9.35782
9.35632
9.35565
9.35566
9.35629
9.35747
9.35918
9.36143
9.36422
9.36761
9.37162
9.37631
9.38176
9.38802
9.39518
9.40332
9.41251
9.42286
9.43443
9.44732
9.46162
9.4774
9.49473
9.5137
9.53437
9.5568
9.58104
9.60713
9.6351
9.66499
9.69682
9.73061
9.76639
9.80399
9.84169
9.87094
9.87486
10.0245
5149.66
-533.076
-441.121
-148.492
-21.0228
25.9416
44.5544
53.7332
59.4664
63.5552
66.5344
68.5728
69.7439
70.1041
69.7146
68.6455
66.9751
64.788
62.1719
59.2153
56.0048
52.6231
49.1469
45.6457
42.1808
38.8044
35.5597
32.4809
29.5937
26.9155
24.4567
22.2212
20.2076
18.4099
16.8186
15.4217
14.2052
13.1539
12.2524
11.4848
10.8361
10.2917
9.83794
9.46228
9.15336
8.90097
8.69609
8.53084
8.39837
8.29285
8.2093
8.14356
8.09214
8.05216
8.02129
7.9976
7.97954
7.9659
7.95569
7.94815
7.94267
7.9388
7.93618
7.93457
7.93376
7.93362
7.93405
7.93502
7.93647
7.93842
7.94087
7.94385
7.9474
7.95156
7.95641
7.962
7.9684
7.97568
7.98393
7.99323
8.00366
8.01531
8.02824
8.04255
8.05832
8.07561
8.0945
8.11505
8.13731
8.16134
8.18718
8.21486
8.24441
8.27588
8.30929
8.34452
8.38024
8.40977
8.42001
8.5465
5149.63
-533.168
-441.274
-148.705
-21.2954
25.6103
44.1654
53.2877
58.9657
63.001
65.9282
67.9166
69.0395
69.3538
68.9204
67.8097
66.1001
63.8761
61.2256
58.2369
54.9968
51.5877
48.0865
44.5626
41.0769
37.6819
34.4204
31.3268
28.4263
25.7365
23.2675
21.023
19.0017
17.1973
15.6003
14.1985
12.9778
11.923
11.0185
10.2486
9.59784
9.05174
8.59659
8.21981
7.90998
7.65685
7.45138
7.28565
7.15281
7.04699
6.9632
6.89727
6.8457
6.8056
6.77463
6.75085
6.73273
6.71902
6.70875
6.70114
6.69559
6.69164
6.68894
6.68722
6.68628
6.686
6.68626
6.68702
6.68824
6.68991
6.69204
6.69464
6.69776
6.70143
6.70571
6.71066
6.71633
6.72281
6.73016
6.73846
6.74778
6.75821
6.76982
6.78269
6.7969
6.81252
6.82962
6.84827
6.86852
6.89043
6.91404
6.93941
6.96655
6.99552
7.02634
7.05894
7.0923
7.12124
7.1357
7.24232
5149.61
-533.249
-441.408
-148.893
-21.5357
25.3183
43.8227
52.8953
58.5249
62.5132
65.3951
67.3397
68.4207
68.6949
68.2235
67.0767
65.3332
63.0773
60.397
57.3807
54.115
50.6826
47.1599
43.6164
40.113
36.7021
33.4264
30.32
27.4083
24.7086
22.2309
19.9789
17.951
16.1409
14.5391
13.1331
11.9089
10.8512
9.94426
9.17224
8.51979
7.97228
7.51597
7.13825
6.82765
6.57391
6.36794
6.20182
6.06866
5.96258
5.8786
5.8125
5.76081
5.72061
5.68955
5.66571
5.64752
5.63376
5.62343
5.61576
5.61015
5.60613
5.60334
5.60153
5.60048
5.60006
5.60017
5.60075
5.60175
5.60316
5.60499
5.60724
5.60996
5.61317
5.61693
5.62127
5.62627
5.63199
5.63849
5.64583
5.6541
5.66337
5.67371
5.68519
5.69789
5.71188
5.72723
5.74399
5.76224
5.78203
5.8034
5.8264
5.85107
5.87745
5.90558
5.9354
5.96614
5.99384
6.01084
6.10043
5149.58
-533.32
-441.526
-149.057
-21.7455
25.0633
43.5234
52.5529
58.1404
62.0879
64.9304
66.8371
67.8818
68.1214
67.6171
66.4393
64.6665
62.3833
59.6775
56.6376
53.3501
49.8976
46.3566
42.7965
39.2782
35.8537
32.5659
29.4488
26.5276
23.8194
21.3344
19.076
17.0426
15.2278
13.6219
12.2125
10.9853
9.92516
9.01612
8.24236
7.58849
7.03979
6.58252
6.20401
5.89277
5.63851
5.43213
5.26567
5.13225
5.02596
4.94181
4.87558
4.82378
4.7835
4.75237
4.72847
4.71023
4.69641
4.68604
4.67832
4.67265
4.66857
4.66571
4.66381
4.66266
4.66212
4.66209
4.6625
4.6633
4.66448
4.66603
4.66797
4.67032
4.67311
4.67638
4.68017
4.68455
4.68955
4.69525
4.70171
4.70899
4.71716
4.7263
4.73646
4.74772
4.76014
4.77379
4.78874
4.80503
4.82273
4.84189
4.86255
4.88475
4.90853
4.93393
4.96092
4.98891
5.01491
5.03312
5.10818
5149.56
-533.381
-441.628
-149.199
-21.9273
24.8425
43.2644
52.2565
57.8078
61.7201
64.5287
66.4029
67.4165
67.6263
67.0939
65.8896
64.0919
61.7853
59.0578
55.9978
52.6918
49.2223
45.6658
42.0917
38.5606
35.1247
31.8268
28.7006
25.7714
23.0562
20.565
18.3013
16.2633
14.4445
12.8352
11.4228
10.1933
9.13103
8.22025
7.44506
6.78999
6.24032
5.78224
5.40307
5.0913
4.83661
4.62988
4.46315
4.32951
4.22305
4.13875
4.07242
4.02053
3.98017
3.94899
3.92503
3.90675
3.89289
3.88247
3.87471
3.86899
3.86486
3.86193
3.85996
3.85872
3.85807
3.85791
3.85817
3.85879
3.85976
3.86106
3.86272
3.86473
3.86713
3.86996
3.87325
3.87704
3.8814
3.88636
3.892
3.89836
3.90551
3.91352
3.92244
3.93234
3.94328
3.95533
3.96854
3.98297
3.99866
4.01568
4.03406
4.05385
4.07508
4.0978
4.12198
4.14719
4.17117
4.18961
4.2523
5149.54
-533.434
-441.715
-149.321
-22.0833
24.653
43.0421
52.0023
57.5225
61.4048
64.1844
66.0307
67.0178
67.2024
66.6461
65.4192
63.6004
61.2741
58.5282
55.4512
52.1296
48.6458
45.0763
41.4903
37.9486
34.5031
31.1967
28.0629
25.127
22.406
19.9097
17.6415
15.5996
13.7775
12.1653
10.7506
9.51898
8.45503
7.54282
6.76644
6.11038
5.55989
5.10115
4.72144
4.40922
4.15418
3.94717
3.7802
3.64638
3.53977
3.45537
3.38894
3.33698
3.29656
3.26533
3.24133
3.22301
3.20912
3.19866
3.19086
3.1851
3.18091
3.17794
3.17589
3.17457
3.17383
3.17356
3.17367
3.17414
3.17492
3.176
3.17739
3.17911
3.18116
3.18359
3.18642
3.18969
3.19345
3.19774
3.20263
3.20815
3.21436
3.22132
3.2291
3.23774
3.2473
3.25784
3.26942
3.28209
3.29589
3.31087
3.32709
3.34456
3.36335
3.38347
3.40493
3.4274
3.44919
3.46713
3.51935
5149.53
-533.479
-441.79
-149.425
-22.2162
24.4917
42.8529
51.7859
57.2797
61.1365
63.8915
65.7144
66.679
66.8423
66.2658
65.0199
63.1832
60.8403
58.079
54.9878
51.6531
48.1573
44.5769
40.981
37.4304
33.977
30.6634
27.5234
24.5819
21.856
19.3554
17.0836
15.0384
13.2136
11.5991
10.1824
8.94909
7.88372
6.97033
6.19296
5.53609
4.98493
4.52564
4.14548
3.8329
3.57757
3.37032
3.20317
3.0692
2.96247
2.87797
2.81147
2.75944
2.71898
2.68771
2.66367
2.64532
2.6314
2.62091
2.61307
2.60728
2.60305
2.60002
2.59792
2.59653
2.5957
2.59533
2.59532
2.59564
2.59626
2.59714
2.59831
2.59975
2.6015
2.60356
2.60598
2.60878
2.612
2.61569
2.61989
2.62465
2.63001
2.63602
2.64274
2.65022
2.65852
2.66767
2.67774
2.68877
2.7008
2.71389
2.72807
2.74337
2.75984
2.77751
2.79638
2.81621
2.83575
2.85269
2.89605
5149.52
-533.517
-441.853
-149.512
-22.3285
24.3553
42.693
51.6031
57.0746
60.91
63.6444
65.4474
66.3932
66.5386
65.9452
64.6833
62.8318
60.475
57.7008
54.5977
51.2521
47.7463
44.1569
40.5528
36.9949
33.5348
30.2154
27.0701
24.124
21.3941
18.89
16.6151
14.5674
12.7403
11.1238
9.70549
8.47081
7.40428
6.48992
5.71174
5.0542
4.50249
4.04275
3.66222
3.34935
3.09377
2.88634
2.71903
2.58494
2.47812
2.39354
2.32697
2.2749
2.2344
2.20309
2.17902
2.16064
2.14669
2.13618
2.12832
2.12249
2.11822
2.11515
2.113
2.11154
2.11064
2.11018
2.11007
2.11027
2.11073
2.11145
2.1124
2.11361
2.11508
2.11682
2.11887
2.12126
2.124
2.12715
2.13074
2.1348
2.13939
2.14455
2.15032
2.15675
2.16389
2.17178
2.18046
2.18999
2.2004
2.21174
2.22403
2.23733
2.25164
2.26702
2.28347
2.30081
2.31812
2.33374
2.36963
5149.51
-533.548
-441.905
-149.586
-22.4227
24.241
42.559
51.4498
56.9028
60.7202
63.4373
65.2239
66.1539
66.2844
65.6769
64.4018
62.5379
60.1696
57.3847
54.2718
50.9171
47.4031
43.8062
40.1953
36.6313
33.1658
29.8415
26.692
23.7422
21.0089
18.5019
16.2245
14.1746
12.3457
10.7277
9.30799
8.07218
7.0047
6.08954
5.3107
4.65262
4.10046
3.64035
3.25953
2.94642
2.69064
2.48305
2.31562
2.18143
2.07453
1.98988
1.92327
1.87115
1.83062
1.79928
1.77519
1.75679
1.74282
1.73228
1.7244
1.71854
1.71424
1.71113
1.70893
1.70743
1.70646
1.70592
1.70572
1.70581
1.70614
1.7067
1.70748
1.70848
1.70971
1.71117
1.7129
1.71491
1.71723
1.7199
1.72294
1.72639
1.73029
1.73469
1.7396
1.74509
1.75119
1.75794
1.76538
1.77354
1.78248
1.79222
1.8028
1.81425
1.8266
1.83987
1.85408
1.86911
1.88429
1.89841
1.92802
5149.5
-533.575
-441.949
-149.647
-22.5011
24.1458
42.4474
51.3223
56.7599
60.5624
63.2652
65.038
65.955
66.0731
65.454
64.168
62.2938
59.916
57.1224
54.0013
50.6392
47.1185
43.5154
39.899
36.33
32.86
29.5318
26.3787
23.4258
20.6899
18.1805
15.9011
13.8494
12.019
10.3997
8.9789
7.74217
6.67392
5.75812
4.97875
4.32022
3.7677
3.30729
2.92623
2.61292
2.35699
2.14927
1.98174
1.84746
1.74049
1.6558
1.58915
1.537
1.49644
1.46507
1.44097
1.42255
1.40856
1.398
1.39009
1.38422
1.37989
1.37675
1.37451
1.37296
1.37194
1.37133
1.37105
1.37104
1.37126
1.37169
1.37232
1.37313
1.37414
1.37536
1.37681
1.37849
1.38044
1.38269
1.38525
1.38816
1.39146
1.39517
1.39933
1.40398
1.40915
1.41488
1.42121
1.42816
1.43577
1.44408
1.45311
1.46289
1.47346
1.48483
1.49701
1.50992
1.52308
1.53565
1.55998
5149.49
-533.597
-441.986
-149.698
-22.5659
24.0672
42.3552
51.217
56.6418
60.432
63.123
64.8846
65.7908
65.8988
65.2701
63.9751
62.0926
59.707
56.9061
53.7784
50.4103
46.884
43.2759
39.655
36.0819
32.6083
29.2768
26.1209
23.1655
20.4274
17.9161
15.635
13.5819
11.7503
10.1299
8.70827
7.47079
6.40192
5.48559
4.70579
4.04691
3.49409
3.03344
2.65218
2.33871
2.08265
1.87483
1.70722
1.57288
1.46586
1.38113
1.31444
1.26226
1.22168
1.1903
1.16618
1.14774
1.13374
1.12316
1.11524
1.10934
1.10499
1.10182
1.09955
1.09796
1.09689
1.09623
1.09588
1.09579
1.09591
1.09623
1.09672
1.09738
1.09821
1.09921
1.10041
1.10181
1.10344
1.10531
1.10746
1.1099
1.11266
1.11578
1.11928
1.12319
1.12755
1.13238
1.13771
1.14359
1.15002
1.15706
1.16471
1.17301
1.18197
1.19163
1.20199
1.213
1.22431
1.23532
1.25525
5149.48
-533.615
-442.016
-149.74
-22.6191
24.0026
42.2796
51.1306
56.5449
60.3251
63.0064
64.7588
65.6563
65.756
65.1194
63.8172
61.9278
59.5358
56.7291
53.596
50.2229
46.6921
43.08
39.4554
35.879
32.4025
29.0684
25.9102
22.9527
20.2128
17.7
15.4176
13.3633
11.5307
9.90952
8.48715
7.24907
6.1797
5.26295
4.4828
3.82363
3.27058
2.80974
2.42832
2.11473
1.85857
1.65066
1.48298
1.34859
1.24153
1.15676
1.09005
1.03785
0.99725
0.965854
0.941717
0.923268
0.909252
0.898667
0.890726
0.884812
0.880444
0.877251
0.874949
0.873325
0.872216
0.871503
0.871098
0.870938
0.870981
0.871198
0.871572
0.872095
0.872767
0.873591
0.874576
0.875736
0.877084
0.87864
0.880422
0.882453
0.884757
0.887356
0.890277
0.893546
0.897189
0.901233
0.905705
0.91063
0.916034
0.921943
0.928379
0.935364
0.94292
0.951066
0.959812
0.969122
0.978742
0.988272
1.00454
5149.48
-533.629
-442.04
-149.773
-22.6624
23.9501
42.218
51.0602
56.4661
60.238
62.9115
64.6564
65.5468
65.6397
64.9968
63.6886
61.7937
59.3966
56.5852
53.4477
50.0706
46.5362
42.9207
39.2932
35.7141
32.2352
28.899
25.739
22.7799
20.0386
17.5245
15.241
13.1859
11.3524
9.73059
8.30765
7.0691
5.99932
5.08224
4.30181
3.64241
3.08917
2.62817
2.24663
1.93293
1.67669
1.46872
1.30099
1.16655
1.05946
0.974668
0.907931
0.855716
0.815101
0.783692
0.759544
0.741085
0.727058
0.716462
0.708509
0.702581
0.698196
0.694983
0.692658
0.691006
0.689862
0.689108
0.688653
0.688435
0.688407
0.688541
0.688817
0.689226
0.689763
0.690431
0.691236
0.692187
0.693296
0.694579
0.696051
0.69773
0.699636
0.70179
0.704212
0.706925
0.709951
0.713314
0.717035
0.721137
0.725642
0.730572
0.735946
0.741784
0.748104
0.754923
0.762252
0.770064
0.778182
0.786334
0.799559
5149.47
-533.641
-442.06
-149.801
-22.6974
23.9075
42.1682
51.0033
56.4022
60.1676
62.8347
64.5736
65.4582
65.5457
64.8977
63.5847
61.6853
59.2841
56.4689
53.3279
49.9476
46.4103
42.7922
39.1622
35.581
32.1003
28.7624
25.6009
22.6405
19.898
17.383
15.0986
13.0427
11.2086
9.58626
8.16287
6.92393
5.85383
4.93648
4.15583
3.49624
2.94285
2.48173
2.10009
1.78631
1.53
1.32198
1.15421
1.01974
0.91262
0.827806
0.761052
0.708823
0.668196
0.636778
0.61262
0.594153
0.580117
0.569513
0.56155
0.55561
0.551211
0.547982
0.545637
0.543961
0.542789
0.541999
0.541503
0.541235
0.541148
0.541212
0.541406
0.541717
0.54214
0.542676
0.543328
0.544102
0.545008
0.546059
0.547266
0.548645
0.550213
0.551985
0.55398
0.556217
0.558715
0.561491
0.564567
0.56796
0.57169
0.575775
0.580231
0.585076
0.590325
0.595992
0.602088
0.608595
0.61539
0.622289
0.632994
5149.47
-533.65
-442.075
-149.823
-22.7256
23.8733
42.1281
50.9575
56.351
60.111
62.7731
64.5071
65.3871
65.4702
64.8182
63.5013
61.5984
59.1938
56.3755
53.2318
49.8489
46.3092
42.689
39.0572
35.4743
31.992
28.6528
25.4901
22.5286
19.7853
17.2695
14.9844
12.9279
11.0934
9.47056
8.04681
6.80756
5.73721
4.81965
4.03882
3.37909
2.82557
2.36436
1.98264
1.66879
1.41243
1.20437
1.03656
0.902067
0.794928
0.710096
0.643329
0.591088
0.550452
0.519026
0.494861
0.476387
0.462344
0.451732
0.443761
0.437811
0.433401
0.430158
0.427797
0.426101
0.424904
0.424086
0.423555
0.423245
0.423109
0.423114
0.423239
0.423468
0.423797
0.424221
0.424744
0.425369
0.426104
0.426958
0.427942
0.429068
0.430348
0.431797
0.433431
0.435263
0.43731
0.439588
0.442113
0.444901
0.447968
0.451329
0.454999
0.458992
0.463321
0.467998
0.473033
0.478415
0.484057
0.489839
0.498468
5149.47
-533.658
-442.088
-149.84
-22.7481
23.846
42.0961
50.921
56.31
60.0658
62.7239
64.454
65.3303
65.41
64.7547
63.4348
61.529
59.1218
56.3011
53.1551
49.7702
46.2287
42.6068
38.9735
35.3893
31.9058
28.5655
25.4018
22.4396
19.6955
17.179
14.8935
12.8365
11.0015
9.37839
7.95435
6.71486
5.6443
4.72658
3.94561
3.28576
2.73215
2.27086
1.88907
1.57518
1.31878
1.11068
0.942847
0.80833
0.701174
0.616329
0.549551
0.497301
0.456658
0.425225
0.401054
0.382575
0.368526
0.357908
0.34993
0.343972
0.339552
0.336298
0.333924
0.33221
0.330994
0.330152
0.329592
0.329248
0.329071
0.329027
0.329094
0.329255
0.329504
0.329836
0.330251
0.330752
0.331343
0.332033
0.33283
0.333742
0.334781
0.335959
0.337287
0.338778
0.340445
0.342302
0.344362
0.346638
0.349143
0.35189
0.354892
0.358161
0.361706
0.36554
0.36967
0.374089
0.378739
0.38354
0.390466
5149.47
-533.664
-442.098
-149.854
-22.7659
23.8244
42.0708
50.892
56.2776
60.0301
62.6849
64.4119
65.2854
65.3623
64.7044
63.3821
61.4741
59.0648
56.2422
53.0944
49.7079
46.1649
42.5417
38.9072
35.3219
31.8375
28.4964
25.3319
22.369
19.6244
17.1074
14.8214
12.7641
10.9288
9.30542
7.88115
6.64147
5.57075
4.65289
3.8718
3.21187
2.65818
2.19683
1.81499
1.50106
1.24462
1.0365
0.868645
0.734111
0.626941
0.542085
0.475298
0.423041
0.382392
0.350954
0.326779
0.308294
0.294241
0.283618
0.275634
0.26967
0.265243
0.261979
0.259593
0.257867
0.256634
0.255772
0.255188
0.254816
0.254604
0.25452
0.254539
0.254645
0.254828
0.255082
0.255408
0.255805
0.256278
0.256831
0.257472
0.258207
0.259045
0.259995
0.261068
0.262274
0.263624
0.265127
0.266796
0.268642
0.270675
0.272906
0.275345
0.278003
0.280888
0.28401
0.287374
0.290979
0.294782
0.298735
0.304268
5149.47
-533.669
-442.106
-149.865
-22.7799
23.8074
42.0509
50.8693
56.2521
60.0019
62.6542
64.3789
65.25
65.3248
64.6649
63.3407
61.4309
59.02
56.1958
53.0467
49.6589
46.1148
42.4905
38.8551
35.2689
31.7838
28.442
25.277
22.3135
19.5684
17.0511
14.7648
12.7072
10.8716
9.24799
7.82354
6.58371
5.51286
4.59489
3.81372
3.15371
2.59997
2.13857
1.75669
1.44272
1.18626
0.978114
0.810243
0.675695
0.568515
0.483651
0.416856
0.364594
0.323939
0.292497
0.268318
0.24983
0.235773
0.225146
0.217157
0.211188
0.206754
0.203483
0.201088
0.19935
0.198104
0.197226
0.196623
0.196227
0.195988
0.19587
0.19585
0.195909
0.196038
0.19623
0.196481
0.196794
0.197168
0.197608
0.19812
0.198708
0.199379
0.200142
0.201004
0.201973
0.203058
0.204268
0.205612
0.207099
0.208739
0.210539
0.212508
0.214655
0.216987
0.219512
0.222235
0.225155
0.228245
0.231472
0.235872
5149.46
-533.672
-442.112
-149.874
-22.7909
23.7941
42.0353
50.8515
56.2322
59.98
62.6303
64.3531
65.2224
65.2956
64.634
63.3083
61.3971
58.985
56.1596
53.0094
49.6207
46.0756
42.4505
38.8143
35.2276
31.7418
28.3995
25.234
22.2702
19.5247
17.0071
14.7205
12.6626
10.8269
9.20308
7.77849
6.53854
5.46759
4.54953
3.76829
3.10822
2.55443
2.09298
1.71107
1.39708
1.1406
0.932434
0.76455
0.62999
0.522801
0.437929
0.371129
0.318862
0.278203
0.246758
0.222575
0.204084
0.190024
0.179394
0.171402
0.165428
0.160989
0.157712
0.155309
0.153562
0.152305
0.151414
0.150795
0.15038
0.150118
0.149974
0.149921
0.149943
0.150027
0.150167
0.150359
0.150601
0.150895
0.151243
0.151648
0.152116
0.152651
0.153259
0.153946
0.15472
0.155587
0.156555
0.157631
0.158821
0.160135
0.161578
0.163158
0.164881
0.166755
0.168784
0.170973
0.173323
0.175815
0.178431
0.181913
5149.46
-533.675
-442.117
-149.881
-22.7993
23.7839
42.0233
50.8378
56.2169
59.963
62.6118
64.3331
65.2011
65.2729
64.6102
63.2833
61.371
58.9579
56.1316
52.9805
49.591
46.0452
42.4195
38.7828
35.1954
31.7092
28.3665
25.2007
22.2365
19.4907
16.9729
14.686
12.628
10.7921
9.16818
7.74347
6.50342
5.43239
4.51426
3.73296
3.07284
2.51901
2.05753
1.6756
1.36158
1.10508
0.896903
0.729007
0.594439
0.487242
0.402364
0.335559
0.283288
0.242626
0.211177
0.186992
0.168499
0.154436
0.143803
0.135808
0.12983
0.125387
0.122105
0.119696
0.117942
0.116676
0.115774
0.115142
0.114712
0.114431
0.114265
0.114187
0.114178
0.114226
0.114324
0.114467
0.114652
0.114881
0.115153
0.115473
0.115842
0.116265
0.116746
0.117292
0.117906
0.118595
0.119364
0.12022
0.121167
0.122213
0.123363
0.124622
0.125997
0.127492
0.129112
0.130862
0.132741
0.134738
0.136841
0.139585
5149.46
-533.677
-442.12
-149.886
-22.8058
23.7761
42.0142
50.8273
56.2051
59.95
62.5977
64.3179
65.1848
65.2556
64.5919
63.2641
61.351
58.9371
56.1101
52.9584
49.5682
46.0219
42.3957
38.7585
35.1707
31.6841
28.3411
25.175
22.2105
19.4645
16.9465
14.6595
12.6013
10.7653
9.14123
7.71643
6.47629
5.40519
4.48701
3.70566
3.0455
2.49163
2.03013
1.64817
1.33413
1.07762
0.869428
0.701522
0.566946
0.459742
0.374859
0.308049
0.255774
0.21511
0.183658
0.159471
0.140975
0.126911
0.116275
0.108277
0.102297
0.0978503
0.094564
0.0921504
0.0903904
0.0891177
0.088207
0.0875648
0.0871217
0.0868268
0.086643
0.0865437
0.0865101
0.0865295
0.0865934
0.0866966
0.0868363
0.0870117
0.0872233
0.0874726
0.087762
0.0880946
0.0884738
0.0889036
0.0893882
0.089932
0.0905397
0.0912159
0.0919655
0.0927932
0.0937037
0.0947016
0.0957913
0.0969771
0.0982629
0.0996521
0.101145
0.102735
0.104414
0.106565
5149.46
-533.679
-442.123
-149.889
-22.8106
23.7702
42.0073
50.8194
56.1963
59.9403
62.587
64.3064
65.1725
65.2425
64.578
63.2496
61.3359
58.9213
56.0938
52.9415
49.5509
46.0042
42.3776
38.74
35.1519
31.665
28.3217
25.1553
22.1907
19.4445
16.9263
14.6391
12.5808
10.7447
9.12057
7.69568
6.45548
5.38432
4.46608
3.68469
3.0245
2.4706
2.00907
1.62709
1.31304
1.05651
0.848306
0.680391
0.545806
0.438597
0.353709
0.286895
0.234617
0.193949
0.162496
0.138306
0.119809
0.105742
0.0951046
0.0871047
0.0811219
0.0766727
0.073383
0.0709656
0.0692009
0.0679224
0.0670048
0.0663544
0.0659014
0.0655946
0.0653967
0.0652806
0.0652274
0.0652235
0.0652602
0.0653317
0.0654346
0.0655674
0.06573
0.0659231
0.0661485
0.0664081
0.0667048
0.0670415
0.0674215
0.0678482
0.0683254
0.0688568
0.0694461
0.0700972
0.0708138
0.0715996
0.0724582
0.073393
0.0744071
0.0755034
0.0766827
0.0779397
0.0792717
0.0809494
5149.46
-533.68
-442.125
-149.892
-22.8142
23.7659
42.0022
50.8136
56.1898
59.9331
62.5791
64.2978
65.1633
65.2328
64.5678
63.2388
61.3246
58.9096
56.0816
52.9289
49.538
45.9909
42.3639
38.726
35.1377
31.6506
28.307
25.1405
22.1757
19.4293
16.911
14.6237
12.5653
10.7291
9.10484
7.67988
6.43962
5.3684
4.45012
3.66869
3.00846
2.45454
1.99299
1.61099
1.29692
1.04038
0.832162
0.664238
0.529647
0.422431
0.337538
0.270721
0.218439
0.177769
0.146313
0.122122
0.103622
0.089554
0.0789148
0.0709132
0.0649284
0.0604769
0.0571846
0.054764
0.0529955
0.0517125
0.0507894
0.0501324
0.0496715
0.0493553
0.0491462
0.0490168
0.0489478
0.0489255
0.0489405
0.0489867
0.0490602
0.0491591
0.0492826
0.0494308
0.0496049
0.0498062
0.0500368
0.050299
0.0505951
0.050928
0.0513005
0.0517156
0.0521762
0.0526853
0.0532459
0.0538611
0.0545335
0.055266
0.0560611
0.056921
0.0578466
0.0588346
0.0598838
0.0611861
5149.46
-533.681
-442.126
-149.894
-22.8167
23.7628
41.9986
50.8095
56.1851
59.9279
62.5735
64.2917
65.1568
65.2258
64.5604
63.231
61.3164
58.901
56.0727
52.9197
49.5285
45.9811
42.3539
38.7158
35.1272
31.6399
28.2961
25.1294
22.1645
19.418
16.8995
14.6121
12.5536
10.7173
9.09298
7.66795
6.42763
5.35636
4.43804
3.65657
2.99631
2.44236
1.98078
1.59876
1.28468
1.02812
0.819898
0.651964
0.517365
0.410143
0.325246
0.258424
0.206139
0.165466
0.134008
0.109815
0.0913134
0.0772436
0.0666028
0.0585996
0.0526131
0.0481597
0.0448653
0.0424422
0.0406706
0.039384
0.0384566
0.0377944
0.0373273
0.0370036
0.0367856
0.0366457
0.0365642
0.0365273
0.0365251
0.0365513
0.0366015
0.0366735
0.0367659
0.0368786
0.0370119
0.037167
0.037345
0.0375478
0.0377772
0.0380354
0.0383245
0.0386468
0.0390046
0.0394004
0.0398365
0.0403151
0.0408387
0.0414092
0.0420289
0.0426993
0.0434215
0.0441933
0.0450144
0.0460203
5149.46
-533.682
-442.127
-149.895
-22.8184
23.7607
41.9962
50.8067
56.182
59.9244
62.5697
64.2876
65.1523
65.221
64.5553
63.2256
61.3107
58.8951
56.0665
52.9132
49.5217
45.9741
42.3467
38.7084
35.1196
31.6321
28.2882
25.1213
22.1562
19.4096
16.891
14.6035
12.5449
10.7085
9.08413
7.65903
6.41865
5.34734
4.42897
3.64746
2.98717
2.43319
1.97159
1.58955
1.27544
1.01887
0.810637
0.642694
0.508087
0.400858
0.315955
0.249129
0.19684
0.156164
0.124703
0.100508
0.0820051
0.0679337
0.0572915
0.0492868
0.0432989
0.0388439
0.0355477
0.0331225
0.0313485
0.030059
0.0291282
0.0284618
0.0279898
0.0276603
0.0274353
0.0272871
0.0271958
0.0271473
0.0271317
0.0271421
0.027174
0.0272248
0.0272927
0.0273773
0.0274785
0.027597
0.0277335
0.0278894
0.0280661
0.0282651
0.0284881
0.0287369
0.0290133
0.0293192
0.0296564
0.0300268
0.030432
0.0308738
0.0313539
0.0318736
0.0324338
0.033033
0.0336716
0.0344447
5149.46
-533.682
-442.128
-149.896
-22.8194
23.7595
41.9947
50.8051
56.1801
59.9223
62.5673
64.285
65.1495
65.218
64.552
63.2221
61.307
58.8911
56.0623
52.9089
49.5172
45.9694
42.3418
38.7032
35.1143
31.6266
28.2826
25.1156
22.1503
19.4036
16.8849
14.5973
12.5386
10.7021
9.07763
7.65246
6.41202
5.34065
4.42223
3.64068
2.98035
2.42634
1.96471
1.58265
1.26853
1.01194
0.803691
0.635737
0.50112
0.393884
0.308974
0.242143
0.18985
0.149171
0.117707
0.0935099
0.0750049
0.0609318
0.0502881
0.0422821
0.0362928
0.0318364
0.0285387
0.0261118
0.0243359
0.0230441
0.0221105
0.0214409
0.0209651
0.0206309
0.0204005
0.0202458
0.0201469
0.0200894
0.0200632
0.0200612
0.0200788
0.0201129
0.0201617
0.0202243
0.0203003
0.02039
0.020494
0.0206131
0.0207483
0.0209008
0.0210718
0.0212628
0.0214751
0.0217102
0.0219694
0.0222543
0.0225661
0.0229063
0.0232761
0.0236767
0.0241086
0.0245712
0.0250647
0.025656
5149.46
-533.682
-442.128
-149.897
-22.8198
23.759
41.9941
50.8043
56.1792
59.9213
62.5662
64.2837
65.1481
65.2164
64.5503
63.2203
61.305
58.8889
56.0599
52.9063
49.5144
45.9664
42.3387
38.7
35.1109
31.623
28.2788
25.1117
22.1463
19.3994
16.8806
14.5929
12.5341
10.6975
9.07295
7.64771
6.4072
5.33577
4.41729
3.6357
2.97533
2.42128
1.95962
1.57753
1.26339
1.00678
0.798519
0.630551
0.495924
0.388679
0.303762
0.236925
0.184627
0.143944
0.112477
0.0882769
0.0697697
0.0556948
0.0450495
0.0370421
0.0310515
0.0265938
0.0232948
0.0208665
0.019089
0.0177953
0.0168596
0.0161875
0.0157086
0.0153709
0.0151361
0.0149764
0.0148716
0.0148071
0.0147726
0.0147611
0.0147675
0.0147887
0.0148225
0.0148679
0.0149243
0.0149917
0.0150702
0.0151606
0.0152634
0.0153795
0.0155099
0.0156557
0.0158178
0.0159974
0.0161956
0.0164135
0.0166521
0.0169126
0.0171958
0.0175027
0.0178339
0.0181889
0.0185681
0.019018
5149.46
-533.682
-442.128
-149.896
-22.8197
23.7591
41.9942
50.8044
56.1793
59.9213
62.5662
64.2836
65.1479
65.2161
64.5499
63.2197
61.3043
58.8881
56.059
52.9052
49.5132
45.965
42.3371
38.6982
35.109
31.621
28.2766
25.1093
22.1438
19.3968
16.8778
14.59
12.531
10.6943
9.06971
7.64438
6.40379
5.33229
4.41375
3.6321
2.97168
2.4176
1.9559
1.57378
1.25961
1.00298
0.794701
0.626718
0.492077
0.384821
0.299896
0.233051
0.180748
0.14006
0.108589
0.0843862
0.0658765
0.0517995
0.0411525
0.0331436
0.0271517
0.0226928
0.0193926
0.016963
0.0151841
0.013889
0.0129516
0.0122774
0.0117962
0.0114557
0.0112176
0.011054
0.0109445
0.0108746
0.0108338
0.0108148
0.0108126
0.0108238
0.0108461
0.0108782
0.0109194
0.0109694
0.0110282
0.0110962
0.0111739
0.0112618
0.0113607
0.0114713
0.0115944
0.0117309
0.0118816
0.0120473
0.0122289
0.0124271
0.0126429
0.0128767
0.0131292
0.0134001
0.0136897
0.0140303
5149.46
-533.682
-442.128
-149.896
-22.8192
23.7597
41.9949
50.8052
56.1801
59.9222
62.567
64.2845
65.1487
65.2169
64.5506
63.2204
61.3049
58.8886
56.0593
52.9054
49.5132
45.9649
42.3368
38.6978
35.1084
31.6202
28.2756
25.1081
22.1425
19.3953
16.8762
14.5882
12.5291
10.6923
9.0676
7.64217
6.40148
5.3299
4.41129
3.62958
2.9691
2.41497
1.95323
1.57107
1.25687
1.00022
0.791913
0.623911
0.489255
0.381986
0.29705
0.230197
0.177886
0.137193
0.105718
0.0815106
0.062998
0.0489186
0.0382697
0.0302591
0.0242658
0.0198057
0.0165043
0.0140736
0.0122935
0.0109971
0.0100583
0.00938259
0.00889947
0.00855681
0.0083162
0.00814958
0.00803656
0.00796244
0.00791674
0.00789206
0.00788321
0.00788667
0.00790008
0.00792196
0.00795142
0.00798804
0.0080317
0.00808252
0.0081408
0.00820695
0.00828146
0.00836489
0.00845785
0.00856097
0.00867487
0.00880021
0.00893763
0.00908773
0.00925113
0.00942835
0.00961976
0.00982527
0.0100452
0.0103018
5149.46
-533.682
-442.127
-149.895
-22.8182
23.7608
41.9962
50.8066
56.1816
59.9239
62.5688
64.2863
65.1506
65.2187
64.5524
63.2222
61.3065
58.8902
56.0608
52.9067
49.5144
45.9659
42.3376
38.6984
35.1088
31.6204
28.2757
25.108
22.1422
19.3948
16.8755
14.5874
12.5282
10.6913
9.06639
7.64084
6.40005
5.32837
4.40968
3.62789
2.96735
2.41315
1.95136
1.56916
1.25492
0.998239
0.789906
0.621882
0.487207
0.379923
0.294974
0.228111
0.175792
0.135091
0.10361
0.0793989
0.0608827
0.0468005
0.0361492
0.0281368
0.0221419
0.0176805
0.0143779
0.0119462
0.0101651
0.00886761
0.00792765
0.00725061
0.00676603
0.00642167
0.00617908
0.00601014
0.00589439
0.00581707
0.00576763
0.00573857
0.00572464
0.0057222
0.00572881
0.00574286
0.00576335
0.00578972
0.00582174
0.00585939
0.0059028
0.00595223
0.00600804
0.00607063
0.00614042
0.0062179
0.00630354
0.00639782
0.00650124
0.00661426
0.00673734
0.0068709
0.00701522
0.00717028
0.00733637
0.00752873
5149.46
-533.681
-442.127
-149.894
-22.8169
23.7624
41.998
50.8086
56.1839
59.9263
62.5713
64.2889
65.1533
65.2215
64.5552
63.2249
61.3092
58.8928
56.0633
52.9091
49.5166
45.968
42.3395
38.7001
35.1103
31.6217
28.2768
25.1089
22.1428
19.3953
16.8758
14.5875
12.5281
10.691
9.06594
7.64025
6.39933
5.32754
4.40874
3.62686
2.96624
2.41197
1.95012
1.56787
1.25358
0.99686
0.788494
0.620442
0.485745
0.378442
0.293478
0.226601
0.174272
0.133563
0.102076
0.0778591
0.0593386
0.045253
0.034599
0.0265844
0.0205877
0.0161249
0.0128211
0.0103882
0.00860614
0.0073077
0.00636674
0.00568864
0.00520288
0.00485719
0.00461307
0.00444233
0.00432449
0.00424474
0.00419244
0.00416005
0.00414225
0.00413533
0.00413675
0.00414484
0.0041585
0.00417708
0.00420023
0.00422783
0.0042599
0.0042966
0.00433814
0.00438481
0.00443692
0.00449481
0.00455884
0.00462938
0.00470679
0.00479143
0.00488364
0.00498374
0.00509198
0.00520834
0.00533305
0.00547654
5149.46
-533.681
-442.126
-149.893
-22.8152
23.7644
42.0003
50.8113
56.1868
59.9294
62.5746
64.2924
65.1569
65.2252
64.5589
63.2286
61.313
58.8964
56.0668
52.9125
49.5198
45.971
42.3424
38.7027
35.1127
31.6239
28.2787
25.1106
22.1442
19.3965
16.8767
14.5882
12.5286
10.6913
9.06612
7.64027
6.3992
5.32727
4.40835
3.62636
2.96564
2.41129
1.94936
1.56705
1.25271
0.99594
0.787535
0.619451
0.484726
0.3774
0.292417
0.225525
0.173184
0.132465
0.100969
0.0767458
0.0582201
0.0441303
0.0334731
0.0254559
0.0194572
0.0149927
0.0116875
0.00925351
0.00747044
0.00617108
0.00522923
0.00455024
0.00406351
0.00371676
0.00347143
0.00329932
0.00317988
0.00309826
0.0030438
0.00300889
0.00298815
0.00297783
0.00297534
0.00297891
0.0029874
0.00300007
0.00301651
0.00303649
0.00305998
0.00308701
0.00311773
0.00315232
0.003191
0.00323402
0.00328164
0.00333413
0.00339176
0.0034548
0.00352352
0.00359815
0.00367888
0.00376573
0.00385887
0.00396538
5149.46
-533.68
-442.124
-149.891
-22.8132
23.7669
42.0032
50.8145
56.1903
59.9332
62.5787
64.2967
65.1613
65.2298
64.5636
63.2333
61.3177
58.9011
56.0714
52.9169
49.5241
45.9751
42.3462
38.7063
35.116
31.6269
28.2815
25.1131
22.1465
19.3984
16.8784
14.5896
12.5298
10.6923
9.06687
7.64082
6.39957
5.32748
4.40842
3.6263
2.96546
2.41101
1.949
1.56661
1.2522
0.995376
0.786925
0.6188
0.484043
0.376689
0.291684
0.224774
0.172417
0.131686
0.10018
0.0759493
0.0574174
0.0433227
0.0326616
0.0246413
0.0186402
0.0141737
0.010867
0.00843176
0.00664764
0.00534736
0.00440467
0.00372487
0.00323733
0.0028897
0.00264342
0.00247024
0.00234957
0.00226654
0.00221043
0.00217361
0.00215066
0.00213779
0.00213234
0.00213252
0.00213711
0.00214534
0.00215671
0.00217097
0.00218797
0.00220773
0.00223029
0.00225576
0.00228431
0.0023161
0.00235132
0.00239016
0.00243284
0.00247955
0.00253049
0.00258583
0.00264573
0.00271021
0.0027794
0.00285807
5149.46
-533.679
-442.123
-149.889
-22.8108
23.7698
42.0065
50.8183
56.1945
59.9378
62.5836
64.3019
65.1667
65.2353
64.5693
63.2391
61.3234
58.9068
56.077
52.9224
49.5294
45.9802
42.351
38.7109
35.1203
31.6309
28.2851
25.1164
22.1495
19.4011
16.8808
14.5917
12.5316
10.6938
9.06815
7.64187
6.40041
5.32812
4.40889
3.62661
2.96564
2.41107
1.94895
1.56647
1.25199
0.995095
0.786587
0.618415
0.483618
0.376232
0.291198
0.224266
0.171891
0.131146
0.0996284
0.075388
0.0568485
0.0427479
0.0320821
0.0240582
0.0180541
0.0135854
0.0102769
0.00784023
0.00605496
0.00475372
0.0038102
0.00312964
0.00264137
0.00229301
0.00204596
0.00187193
0.00175031
0.00166619
0.00160884
0.00157059
0.00154598
0.00153118
0.00152352
0.00152115
0.00152283
0.00152773
0.00153531
0.00154527
0.00155742
0.00157172
0.00158815
0.00160679
0.00162773
0.00165109
0.001677
0.00170559
0.00173703
0.00177146
0.00180902
0.00184985
0.00189406
0.00194168
0.0019928
0.00205062
5149.46
-533.678
-442.121
-149.887
-22.808
23.7731
42.0104
50.8227
56.1994
59.9431
62.5893
64.3078
65.173
65.2418
64.5759
63.2458
61.3302
58.9135
56.0837
52.929
49.5358
45.9863
42.3569
38.7165
35.1256
31.6358
28.2897
25.1206
22.1533
19.4046
16.8839
14.5945
12.534
10.6959
9.06994
7.64339
6.40168
5.32917
4.40973
3.62727
2.96614
2.41142
1.94918
1.56659
1.25202
0.995043
0.786468
0.618239
0.483394
0.375969
0.290903
0.223944
0.171547
0.130784
0.0992528
0.075001
0.0564525
0.0423448
0.0316734
0.023645
0.0176376
0.0131662
0.00985559
0.00741727
0.0056307
0.00432841
0.00338403
0.00270272
0.00221377
0.00186477
0.00161706
0.00144235
0.00131998
0.00123503
0.00117674
0.0011374
0.00111154
0.00109531
0.001086
0.00108174
0.00108124
0.00108366
0.00108842
0.00109517
0.00110371
0.00111393
0.0011258
0.00113934
0.00115461
0.00117167
0.00119062
0.00121156
0.00123459
0.00125983
0.00128739
0.00131735
0.00134981
0.0013848
0.00142237
0.00146467
5149.46
-533.677
-442.12
-149.885
-22.8049
23.7769
42.0148
50.8276
56.2049
59.9491
62.5957
64.3147
65.1802
65.2492
64.5836
63.2536
61.338
58.9214
56.0915
52.9366
49.5432
45.9936
42.3639
38.7231
35.1318
31.6417
28.2952
25.1256
22.1579
19.4088
16.8877
14.5979
12.537
10.6986
9.07226
7.64539
6.40339
5.33061
4.41093
3.62825
2.96693
2.41204
1.94966
1.56694
1.25225
0.995185
0.78653
0.618234
0.483332
0.375859
0.290755
0.223764
0.171342
0.130557
0.0990091
0.0747438
0.0561846
0.0420683
0.0313902
0.0233566
0.0173451
0.0128705
0.00955745
0.00711722
0.00532916
0.0040257
0.00308037
0.00239828
0.00190867
0.00155906
0.00131079
0.0011355
0.00101253
0.000926934
0.000867914
0.000827756
0.000800967
0.000783664
0.000773125
0.000767454
0.000765349
0.000765924
0.000768591
0.00077297
0.000778828
0.00078603
0.000794516
0.000804274
0.000815324
0.000827711
0.000841494
0.000856743
0.000873534
0.000891943
0.00091205
0.00093393
0.000957644
0.000983216
0.00101069
0.00104149
5149.46
-533.676
-442.118
-149.882
-22.8015
23.781
42.0196
50.8331
56.211
59.9558
62.6029
64.3224
65.1883
65.2577
64.5923
63.2625
61.347
58.9304
56.1005
52.9455
49.5519
46.002
42.372
38.7309
35.1392
31.6487
28.3017
25.1317
22.1635
19.4138
16.8923
14.602
12.5407
10.7018
9.07512
7.64789
6.40555
5.33245
4.41249
3.62956
2.96801
2.41293
1.95036
1.56749
1.25268
0.9955
0.786749
0.618373
0.483404
0.375876
0.290725
0.223697
0.171243
0.130434
0.0988654
0.074584
0.0560119
0.0418855
0.0311994
0.0231596
0.0171432
0.0126649
0.00934894
0.00690647
0.00511668
0.00381187
0.00286549
0.00218256
0.00169225
0.00134206
0.00109326
0.000917467
0.000794006
0.000707885
0.000648302
0.00060752
0.000580029
0.000561928
0.000550477
0.000543764
0.000540468
0.000539685
0.000540809
0.000543438
0.000547318
0.000552294
0.000558282
0.000565248
0.000573188
0.000582123
0.00059209
0.000603134
0.000615308
0.000628665
0.000643264
0.000659158
0.000676394
0.000694991
0.00071498
0.00073729
5149.46
-533.675
-442.116
-149.879
-22.7978
23.7855
42.0249
50.8391
56.2177
59.9632
62.6109
64.3309
65.1973
65.2671
64.602
63.2725
61.3572
58.9407
56.1107
52.9557
49.5619
46.0117
42.3814
38.7399
35.1478
31.6567
28.3092
25.1387
22.17
19.4198
16.8977
14.6069
12.5451
10.7057
9.07858
7.65091
6.40817
5.33472
4.41443
3.6312
2.96939
2.41407
1.9513
1.56825
1.25328
0.995974
0.787112
0.618641
0.483593
0.375999
0.290794
0.22372
0.17123
0.130391
0.0987989
0.0744983
0.0559111
0.0417726
0.0310771
0.0230299
0.0170077
0.0125249
0.00920556
0.00676045
0.00496862
0.00366226
0.00271468
0.00203081
0.00153977
0.00118896
0.000939645
0.000763395
0.0006395
0.000552949
0.000492918
0.000451655
0.000423631
0.000404932
0.000392805
0.000385322
0.00038115
0.00037937
0.00037936
0.000380705
0.000383134
0.000386476
0.000390632
0.000395547
0.000401204
0.000407605
0.000414767
0.000422721
0.000431499
0.000441141
0.000451686
0.000463174
0.000475639
0.000489095
0.000503565
0.000519652
5149.46
-533.673
-442.114
-149.876
-22.7938
23.7903
42.0306
50.8456
56.225
59.9712
62.6196
64.3403
65.2072
65.2775
64.6129
63.2837
61.3686
58.9522
56.1223
52.9671
49.5732
46.0228
42.3921
38.7502
35.1576
31.6661
28.318
25.1469
22.1776
19.4268
16.9041
14.6127
12.5503
10.7103
9.08266
7.6545
6.41131
5.33743
4.41676
3.63319
2.97107
2.41548
1.95248
1.56922
1.25407
0.996605
0.787612
0.61903
0.483889
0.376217
0.290948
0.223821
0.171288
0.130414
0.0987937
0.0744705
0.0558653
0.0417126
0.0310059
0.02295
0.016921
0.0124329
0.00910952
0.0066613
0.0048671
0.00355893
0.00260996
0.00192503
0.00143316
0.00108171
0.00083186
0.000655162
0.00053087
0.000443946
0.000383547
0.000341902
0.000313468
0.00029432
0.000281688
0.000273638
0.000268821
0.000266311
0.000265472
0.000265879
0.000267248
0.000269398
0.000272215
0.000275634
0.000279623
0.000284171
0.000289285
0.000294979
0.000301274
0.000308197
0.000315775
0.000324037
0.000333006
0.000342695
0.000353117
0.000364663
5149.46
-533.672
-442.111
-149.873
-22.7897
23.7954
42.0365
50.8524
56.2327
59.9797
62.629
64.3504
65.218
65.2889
64.6247
63.2959
61.3812
58.965
56.1351
52.98
49.5859
46.0352
42.4043
38.7619
35.1689
31.6767
28.3281
25.1563
22.1863
19.4348
16.9114
14.6193
12.5563
10.7157
9.08745
7.65872
6.415
5.34065
4.41953
3.63556
2.97309
2.41718
1.9539
1.5704
1.25504
0.997396
0.788249
0.619537
0.484287
0.376524
0.29118
0.223992
0.171408
0.130493
0.0988391
0.0744893
0.055863
0.0416936
0.0309737
0.0229074
0.0168705
0.0123762
0.00904804
0.00659617
0.00479919
0.0034889
0.00253833
0.00185218
0.00135938
0.0010072
0.00075679
0.000579635
0.000454959
0.000367694
0.000306979
0.000265021
0.000236265
0.000216772
0.000203763
0.000195291
0.000190002
0.000186957
0.000185514
0.000185238
0.000185837
0.00018712
0.000188965
0.000191297
0.000194073
0.000197276
0.0002009
0.00020495
0.00020944
0.000214384
0.000219802
0.000225713
0.000232135
0.000239076
0.000246546
0.000254794
5149.46
-533.671
-442.109
-149.87
-22.7855
23.8005
42.0426
50.8595
56.2407
59.9886
62.6388
64.361
65.2294
65.3011
64.6375
63.3093
61.3949
58.979
56.1493
52.9942
49.6001
46.0492
42.4179
38.7751
35.1816
31.6888
28.3395
25.167
22.1963
19.4441
16.9199
14.627
12.5633
10.722
9.093
7.66363
6.41931
5.3444
4.42278
3.63835
2.97546
2.41919
1.95559
1.57181
1.25621
0.998354
0.789028
0.620166
0.484789
0.37692
0.291487
0.224227
0.171584
0.130621
0.0989282
0.0745474
0.0558963
0.0417073
0.030972
0.0228937
0.0168473
0.0123458
0.00901202
0.00655588
0.00475564
0.00344288
0.00249044
0.00180288
0.00130901
0.000956029
0.000704993
0.000527351
0.000402284
0.000314692
0.000253688
0.000211462
0.000182443
0.00016268
0.000149383
0.000140598
0.000134959
0.000131524
0.000129642
0.000128871
0.000128913
0.000129569
0.00013071
0.000132256
0.000134156
0.000136386
0.000138932
0.000141793
0.000144975
0.000148487
0.00015234
0.000156548
0.000161124
0.000166073
0.0001714
0.000177265
5149.47
-533.669
-442.107
-149.867
-22.7814
23.8056
42.0487
50.8666
56.2488
59.9978
62.6489
64.3722
65.2415
65.3139
64.6512
63.3236
61.4097
58.9942
56.1648
53.0098
49.6157
46.0646
42.4331
38.7899
35.1958
31.7025
28.3524
25.1792
22.2076
19.4546
16.9296
14.6359
12.5713
10.7291
9.0994
7.6693
6.42429
5.34874
4.42654
3.64159
2.97824
2.42155
1.95757
1.57347
1.25759
0.999491
0.789959
0.620922
0.485397
0.377405
0.29187
0.224526
0.171814
0.130795
0.0990574
0.0746403
0.0559603
0.0417484
0.0309951
0.0229027
0.0168453
0.0123354
0.00899505
0.00653392
0.00472989
0.00341425
0.00245964
0.00177044
0.00127534
0.000921438
0.000669705
0.00049153
0.000366048
0.000278124
0.000216843
0.000174375
0.000145132
0.00012515
0.000111629
0.000102605
9.67079e-05
9.29861e-05
9.07844e-05
8.96549e-05
8.9294e-05
8.94983e-05
9.01337e-05
9.11135e-05
9.23837e-05
9.39126e-05
9.56832e-05
9.76888e-05
9.99293e-05
0.000102409
0.000105135
0.000108116
0.000111359
0.00011487
0.000118652
0.000122802
5149.47
-533.668
-442.105
-149.864
-22.7775
23.8105
42.0545
50.8735
56.2568
60.0069
62.6592
64.3835
65.2539
65.3274
64.6655
63.3387
61.4256
59.0106
56.1816
53.0268
49.6328
46.0817
42.4498
38.8063
35.2117
31.7177
28.3669
25.1929
22.2205
19.4665
16.9405
14.6459
12.5804
10.7373
9.10672
7.67579
6.43001
5.35375
4.43089
3.64534
2.98145
2.42428
1.95988
1.5754
1.2592
1.00082
0.791054
0.621814
0.48612
0.377985
0.292332
0.22489
0.172099
0.131015
0.0992249
0.0747657
0.0560522
0.0418137
0.0310394
0.0229306
0.0168605
0.0123406
0.00899272
0.00652577
0.00471732
0.00339834
0.0024412
0.00175012
0.0012536
0.000898638
0.000646112
0.000467342
0.000341406
0.000253132
0.000191572
0.000148872
0.000119428
9.92591e-05
8.55572e-05
7.6349e-05
7.02565e-05
6.63229e-05
6.38879e-05
6.24989e-05
6.18481e-05
6.17279e-05
6.20002e-05
6.25747e-05
6.33935e-05
6.44208e-05
6.5636e-05
6.70285e-05
6.85945e-05
7.03346e-05
7.22521e-05
7.43522e-05
7.66401e-05
7.91189e-05
8.17903e-05
8.47145e-05
5149.47
-533.667
-442.103
-149.861
-22.7741
23.8148
42.0599
50.88
56.2645
60.0157
62.6693
64.3948
65.2664
65.3411
64.6803
63.3545
61.4422
59.028
56.1996
53.0452
49.6513
46.1002
42.4682
38.8243
35.2292
31.7346
28.3831
25.2082
22.2348
19.4799
16.9529
14.6572
12.5907
10.7466
9.11505
7.6832
6.43655
5.35948
4.43587
3.64965
2.98514
2.42742
1.96254
1.57764
1.26106
1.00237
0.792327
0.622855
0.486965
0.378667
0.292878
0.225324
0.17244
0.131281
0.0994307
0.0749229
0.0561705
0.0419013
0.0311027
0.0229749
0.01689
0.0123587
0.00900202
0.00652834
0.00471477
0.00339191
0.00243185
0.00173857
0.00124042
0.000884243
0.000630812
0.000451368
0.000324928
0.000236272
0.000174419
0.000131486
0.000101849
8.15142e-05
6.76592e-05
5.83026e-05
5.20594e-05
4.7967e-05
4.53604e-05
4.37829e-05
4.29231e-05
4.25702e-05
4.25831e-05
4.28683e-05
4.33651e-05
4.40349e-05
4.48542e-05
4.58097e-05
4.68948e-05
4.81074e-05
4.94482e-05
5.09199e-05
5.25255e-05
5.42669e-05
5.6145e-05
5.81957e-05
5149.47
-533.666
-442.101
-149.859
-22.7713
23.8185
42.0646
50.8857
56.2713
60.0239
62.6788
64.4057
65.2787
65.3548
64.6953
63.3707
61.4596
59.0463
56.2186
53.0648
49.6713
46.1203
42.4882
38.8441
35.2485
31.7533
28.401
25.2252
22.2509
19.4949
16.9668
14.67
12.6023
10.7572
9.12449
7.6916
6.44398
5.36599
4.44155
3.65456
2.98936
2.43102
1.96559
1.58021
1.26321
1.00415
0.793796
0.624059
0.487945
0.379459
0.293514
0.225831
0.172841
0.131596
0.0996761
0.0751124
0.0563153
0.0420106
0.0311841
0.0230343
0.0169324
0.0123879
0.00902102
0.00653956
0.00472007
0.00339273
0.0024293
0.0017335
0.00123346
0.000875883
0.000621415
0.000441204
0.000314197
0.000225118
0.000162946
0.00011977
8.99407e-05
6.94473e-05
5.54557e-05
4.59742e-05
3.96104e-05
3.5396e-05
3.26612e-05
3.09458e-05
2.99349e-05
2.94152e-05
2.92429e-05
2.93223e-05
2.95903e-05
3.00063e-05
3.05447e-05
3.11902e-05
3.19341e-05
3.27723e-05
3.37037e-05
3.47291e-05
3.58499e-05
3.70673e-05
3.83812e-05
3.98129e-05
5149.47
-533.666
-442.101
-149.858
-22.7694
23.821
42.068
50.8902
56.277
60.031
62.6873
64.4158
65.2904
65.368
64.7102
63.3871
61.4772
59.0651
56.2384
53.0854
49.6925
46.1418
42.5098
38.8655
35.2696
31.7738
28.4207
25.2441
22.2687
19.5115
16.9823
14.6843
12.6153
10.769
9.13512
7.70109
6.45238
5.37338
4.44799
3.66014
2.99416
2.43512
1.96907
1.58314
1.26566
1.00619
0.795481
0.625442
0.489072
0.380372
0.294248
0.226417
0.173307
0.131963
0.0999635
0.0753356
0.0564872
0.0421418
0.0312832
0.0231083
0.0169868
0.0124271
0.00904852
0.00655812
0.00473181
0.00339932
0.00243201
0.0017333
0.0012311
0.000871915
0.00061626
0.000435174
0.000307523
0.000217969
0.000155446
0.000112006
8.19763e-05
6.13252e-05
4.72046e-05
3.76122e-05
3.11473e-05
2.68357e-05
2.4003e-05
2.2185e-05
2.10641e-05
2.04243e-05
2.01198e-05
2.00529e-05
2.01589e-05
2.03955e-05
2.07354e-05
2.11619e-05
2.16648e-05
2.22385e-05
2.28807e-05
2.35907e-05
2.43688e-05
2.52155e-05
2.61303e-05
2.71253e-05
5149.47
-533.666
-442.101
-149.858
-22.7689
23.8221
42.0698
50.893
56.2811
60.0364
62.6943
64.4245
65.301
65.3805
64.7244
63.4031
61.4949
59.0843
56.2589
53.107
49.7148
46.1647
42.533
38.8886
35.2924
31.7961
28.4424
25.2648
22.2883
19.53
16.9995
14.7002
12.6299
10.7822
9.14704
7.71174
6.46183
5.3817
4.45527
3.66645
2.99959
2.43977
1.97302
1.58647
1.26845
1.00851
0.797402
0.62702
0.49036
0.381416
0.29509
0.227091
0.173843
0.132387
0.100296
0.0755948
0.0566879
0.0422959
0.0314006
0.0231969
0.0170529
0.0124758
0.00908389
0.00658323
0.00474912
0.00341072
0.00243896
0.00173692
0.00123224
0.000871215
0.000614202
0.000432118
0.000303734
0.000213644
0.000150728
0.000106998
7.67521e-05
5.5937e-05
4.16883e-05
3.19915e-05
2.54372e-05
2.10446e-05
1.81342e-05
1.62381e-05
1.50358e-05
1.4309e-05
1.39098e-05
1.37391e-05
1.37305e-05
1.38405e-05
1.40407e-05
1.43131e-05
1.46465e-05
1.50344e-05
1.54731e-05
1.59612e-05
1.64982e-05
1.70839e-05
1.77178e-05
1.84061e-05
5149.47
-533.666
-442.102
-149.859
-22.7701
23.8212
42.0695
50.8936
56.2828
60.0396
62.6992
64.4314
65.3098
65.3915
64.7376
63.4184
61.5123
59.1035
56.2798
53.1292
49.7381
46.1888
42.5575
38.9134
35.317
31.8203
28.4659
25.2874
22.3099
19.5504
17.0185
14.7178
12.6461
10.7969
9.16035
7.72366
6.47242
5.39104
4.46344
3.67355
3.00572
2.44502
1.97748
1.59024
1.27161
1.01115
0.799582
0.628812
0.491824
0.382605
0.296049
0.22786
0.174455
0.132872
0.100677
0.0758927
0.0569191
0.0424742
0.0315371
0.0233006
0.017131
0.0125341
0.00912689
0.00661453
0.0047715
0.00342635
0.00244951
0.00174367
0.00123615
0.000873025
0.000614463
0.000431241
0.000302025
0.000211328
0.000147968
0.000103916
7.34326e-05
5.24418e-05
3.80603e-05
2.82602e-05
2.16222e-05
1.71581e-05
1.41832e-05
1.22255e-05
1.09616e-05
1.01706e-05
9.70314e-06
9.45829e-06
9.36868e-06
9.38961e-06
9.49176e-06
9.6562e-06
9.87093e-06
1.01286e-05
1.0425e-05
1.07577e-05
1.11259e-05
1.15288e-05
1.19657e-05
1.24397e-05
5149.47
-533.668
-442.104
-149.862
-22.7734
23.8179
42.0665
50.8913
56.2816
60.0399
62.7013
64.4356
65.3163
65.4004
64.7491
63.4324
61.5287
59.1222
56.3005
53.1517
49.7621
46.2139
42.5834
38.9396
35.3433
31.8463
28.4913
25.312
22.3334
19.5727
17.0394
14.7372
12.664
10.8133
9.17513
7.73693
6.48424
5.40148
4.47259
3.68151
3.01259
2.45091
1.9825
1.59448
1.27518
1.01412
0.802044
0.630838
0.493481
0.383951
0.297136
0.228732
0.175151
0.133423
0.101111
0.0762325
0.0571834
0.0426785
0.0316939
0.0234202
0.0172216
0.0126021
0.00917755
0.00665189
0.00479873
0.0034459
0.00246328
0.00175311
0.00124237
0.00087685
0.000616525
0.000432009
0.000301847
0.000210462
0.000146603
0.000102188
7.14418e-05
5.02588e-05
3.57355e-05
2.58287e-05
1.91082e-05
1.45774e-05
1.15459e-05
9.53734e-06
8.22494e-06
7.38565e-06
6.86807e-06
6.56999e-06
6.42287e-06
6.38108e-06
6.41449e-06
6.50348e-06
6.6354e-06
6.80233e-06
6.99943e-06
7.22394e-06
7.47434e-06
7.74974e-06
8.04931e-06
8.37423e-06
5149.46
-533.67
-442.108
-149.867
-22.7793
23.8115
42.0602
50.8855
56.2768
60.0365
62.6999
64.4364
65.3198
65.4067
64.7583
63.4445
61.5437
59.14
56.3208
53.1742
49.7865
46.2397
42.6103
38.9673
35.3712
31.8741
28.5187
25.3386
22.359
19.597
17.0623
14.7586
12.6837
10.8313
9.19149
7.75165
6.49736
5.41309
4.48279
3.6904
3.02028
2.45751
1.98812
1.59924
1.27918
1.01746
0.804813
0.633119
0.495348
0.38547
0.298363
0.229718
0.175937
0.134047
0.101603
0.0766178
0.0574835
0.0429108
0.0318726
0.0235568
0.0173253
0.0126804
0.00923616
0.00669543
0.00483079
0.00346926
0.00248009
0.001765
0.00125061
0.000882376
0.000620052
0.000434069
0.000302836
0.000210672
0.000146249
0.000101426
7.03855e-05
4.89898e-05
3.4312e-05
2.42917e-05
1.74862e-05
1.289e-05
9.80587e-06
7.75278e-06
6.40048e-06
5.52339e-06
4.96819e-06
4.63128e-06
4.44301e-06
4.3569e-06
4.34213e-06
4.37847e-06
4.45277e-06
4.55664e-06
4.68484e-06
4.83421e-06
5.0029e-06
5.1898e-06
5.39401e-06
5.61565e-06
5149.46
-533.674
-442.114
-149.874
-22.7884
23.8015
42.0497
50.8753
56.2674
60.0286
62.694
64.433
65.3192
65.4093
64.7643
63.4541
61.5567
59.1562
56.3401
53.1962
49.8109
46.2661
42.6382
38.9961
35.4007
31.9037
28.5479
25.3672
22.3866
19.6234
17.0873
14.7819
12.7053
10.8511
9.20951
7.76789
6.51188
5.42596
4.4941
3.70027
3.02883
2.46486
1.99439
1.60455
1.28365
1.02119
0.807914
0.635676
0.497443
0.387174
0.299741
0.230825
0.176822
0.134749
0.102157
0.0770524
0.0578223
0.0431733
0.0320749
0.0237117
0.0174432
0.0127695
0.00930311
0.00674538
0.00486779
0.00349645
0.00249987
0.00177924
0.00126071
0.000889417
0.000624833
0.000437193
0.00030475
0.000211707
0.000146648
0.000101366
6.99962e-05
4.83637e-05
3.35154e-05
2.3372e-05
1.64764e-05
1.1813e-05
8.67733e-06
6.58302e-06
5.196e-06
4.2879e-06
3.70342e-06
3.33746e-06
3.11931e-06
3.00163e-06
2.95297e-06
2.95256e-06
2.98683e-06
3.04702e-06
3.12755e-06
3.22497e-06
3.33719e-06
3.46292e-06
3.60122e-06
3.75165e-06
5149.46
-533.679
-442.122
-149.885
-22.8013
23.7871
42.0345
50.8599
56.2527
60.0153
62.6827
64.4244
65.3139
65.4076
64.7664
63.4602
61.5668
59.1703
56.3578
53.2173
49.8349
46.2926
42.6666
39.026
35.4314
31.9349
28.579
25.3978
22.4163
19.6519
17.1143
14.8072
12.7288
10.8728
9.22927
7.78574
6.52787
5.44016
4.50661
3.7112
3.0383
2.47301
2.00136
1.61046
1.28862
1.02536
0.811372
0.63853
0.499782
0.38908
0.301284
0.232066
0.177814
0.135537
0.102779
0.0775404
0.058203
0.0434686
0.0323025
0.0238861
0.0175761
0.0128702
0.00937893
0.00680212
0.00490996
0.00352757
0.00252268
0.00179581
0.00127262
0.000897879
0.000630751
0.000441244
0.000307439
0.000213406
0.000147631
0.000101835
7.00946e-05
4.81974e-05
3.316e-05
2.28811e-05
1.5888e-05
1.11537e-05
7.96536e-06
5.83084e-06
4.41177e-06
3.47679e-06
2.86839e-06
2.47993e-06
2.23953e-06
2.09902e-06
2.02632e-06
2.00018e-06
2.00663e-06
2.03659e-06
2.08423e-06
2.14587e-06
2.21921e-06
2.30285e-06
2.39579e-06
2.49733e-06
5149.46
-533.686
-442.132
-149.899
-22.8185
23.7676
42.0136
50.8384
56.2317
59.9955
62.6651
64.4097
65.3027
65.4004
64.7637
63.4621
61.5734
59.1815
56.3734
53.2369
49.8581
46.3188
42.6953
39.0566
35.4634
31.9675
28.6119
25.4303
22.4481
19.6825
17.1435
14.8347
12.7544
10.8964
9.25086
7.80528
6.5454
5.45576
4.52038
3.72325
3.04877
2.48203
2.00907
1.61701
1.29415
1.02998
0.815215
0.641704
0.502386
0.391202
0.303002
0.233449
0.17892
0.136416
0.103474
0.0780859
0.0586289
0.0437991
0.0325575
0.0240818
0.0177253
0.0129834
0.00946424
0.00686605
0.00495759
0.00356284
0.00254861
0.00181474
0.00128634
0.00090773
0.000637748
0.000446146
0.000310812
0.000215668
0.00014909
0.000102716
7.05619e-05
4.83691e-05
3.31211e-05
2.26923e-05
1.55923e-05
1.07815e-05
7.53773e-06
5.36225e-06
3.91203e-06
2.95234e-06
2.32328e-06
1.91651e-06
1.65894e-06
1.50151e-06
1.4115e-06
1.36718e-06
1.35423e-06
1.36328e-06
1.38827e-06
1.42532e-06
1.47199e-06
1.52677e-06
1.58862e-06
1.65675e-06
5149.46
-533.694
-442.146
-149.918
-22.8408
23.7422
41.9861
50.81
56.2032
59.9682
62.64
64.3877
65.2846
65.3869
64.7552
63.4589
61.5756
59.1891
56.3861
53.2544
49.8799
46.3444
42.724
39.0877
35.4963
32.0015
28.6464
25.4647
22.4819
19.7152
17.1748
14.8643
12.7821
10.9221
9.27434
7.82659
6.56457
5.47284
4.53547
3.73648
3.06027
2.49196
2.01757
1.62424
1.30024
1.03509
0.819468
0.645219
0.505272
0.393556
0.30491
0.234985
0.180149
0.137394
0.104247
0.0786933
0.0591033
0.0441675
0.032842
0.0243002
0.017892
0.0131099
0.00955969
0.00693767
0.00501102
0.00360247
0.00257783
0.00183615
0.00130192
0.000918982
0.000645809
0.000451865
0.000314821
0.000218435
0.000150959
0.000103938
7.13214e-05
4.87986e-05
3.3316e-05
2.27208e-05
1.55031e-05
1.06086e-05
7.30526e-06
5.08678e-06
3.60495e-06
2.6213e-06
1.97333e-06
1.55081e-06
1.27932e-06
1.10889e-06
1.0061e-06
9.48747e-07
9.22152e-07
9.16679e-07
9.26053e-07
9.46237e-07
9.74666e-07
1.00973e-06
1.05036e-06
1.09575e-06
5149.45
-533.705
-442.163
-149.941
-22.8689
23.7101
41.9511
50.7734
56.1664
59.9324
62.6063
64.3573
65.2585
65.3659
64.7398
63.4496
61.5726
59.1922
56.3952
53.2692
49.8998
46.3688
42.7522
39.119
35.5299
32.0367
28.6824
25.5009
22.5177
19.7501
17.2083
14.8961
12.812
10.9498
9.29978
7.84974
6.58542
5.49147
4.55196
3.75096
3.07288
2.50285
2.02691
1.63218
1.30696
1.04072
0.824156
0.649097
0.508459
0.396157
0.307019
0.236685
0.18151
0.138477
0.105103
0.0793669
0.0596298
0.0445766
0.033158
0.0245429
0.0180774
0.0132506
0.009666
0.00701751
0.00507064
0.00364674
0.00261052
0.00186015
0.00131943
0.000931677
0.00065495
0.000458396
0.000319446
0.000221675
0.000153198
0.000105457
7.23247e-05
4.94343e-05
3.36907e-05
2.29109e-05
1.55629e-05
1.05765e-05
7.20826e-06
4.94369e-06
3.42876e-06
2.42089e-06
1.75464e-06
1.31774e-06
1.03433e-06
8.53397e-07
7.40829e-07
6.739e-07
6.37564e-07
6.2192e-07
6.20497e-07
6.29107e-07
6.45073e-07
6.66702e-07
6.92909e-07
7.22874e-07
5149.45
-533.718
-442.184
-149.969
-22.9037
23.6702
41.9077
50.7278
56.1201
59.8868
62.563
64.3175
65.2233
65.3363
64.7166
63.4332
61.5633
59.19
56.4
53.2806
49.9172
46.3915
42.7795
39.1501
35.5639
32.0728
28.7197
25.5388
22.5554
19.787
17.244
14.9302
12.844
10.9796
9.32724
7.87478
6.60803
5.51169
4.5699
3.76673
3.08663
2.51475
2.03712
1.64088
1.31431
1.0469
0.829305
0.65336
0.511964
0.39902
0.309343
0.238558
0.183011
0.139672
0.106049
0.080111
0.0602117
0.045029
0.0335076
0.0248115
0.0182827
0.0134066
0.00978388
0.00710609
0.00513685
0.00369595
0.00264689
0.00188688
0.00133897
0.000945877
0.000665205
0.000465755
0.000324688
0.000225379
0.000155789
0.000107248
7.35429e-05
5.02442e-05
3.42109e-05
2.32264e-05
1.57341e-05
1.06465e-05
7.20707e-06
4.89248e-06
3.3422e-06
2.30904e-06
1.62437e-06
1.17362e-06
8.7936e-07
6.89467e-07
5.69037e-07
4.94805e-07
4.51339e-07
4.28465e-07
4.19514e-07
4.20154e-07
4.27602e-07
4.40096e-07
4.56519e-07
4.76067e-07
5149.44
-533.734
-442.21
-150.004
-22.9465
23.6215
41.8546
50.6719
56.0631
59.8304
62.5088
64.267
65.1778
65.297
64.6844
63.4087
61.5468
59.1817
56.3997
53.2878
49.9314
46.4121
42.8055
39.1806
35.598
32.1095
28.7583
25.5782
22.5949
19.826
17.2818
14.9664
12.8783
11.0115
9.35677
7.90176
6.63245
5.53359
4.58935
3.78386
3.10159
2.5277
2.04825
1.65038
1.32235
1.05365
0.834939
0.658028
0.515805
0.40216
0.311893
0.240616
0.184661
0.140986
0.10709
0.08093
0.0608525
0.0455274
0.033893
0.0251079
0.0185092
0.0135789
0.00991409
0.00720399
0.00521006
0.0037504
0.00268717
0.00191652
0.00136066
0.000961657
0.000676624
0.000473969
0.00033056
0.000229549
0.000158728
0.0001093
7.49605e-05
5.12095e-05
3.48554e-05
2.36443e-05
1.59927e-05
1.07932e-05
7.27564e-06
4.9064e-06
3.31785e-06
2.25777e-06
1.55392e-06
1.08926e-06
7.84588e-07
5.8657e-07
4.5945e-07
3.79371e-07
3.30491e-07
3.02346e-07
2.88066e-07
2.83173e-07
2.84783e-07
2.91063e-07
3.00864e-07
3.13402e-07
5149.43
-533.758
-442.246
-150.05
-23
23.5615
41.79
50.6044
55.9942
59.762
62.4425
64.2046
65.121
65.247
64.6422
63.3751
61.5223
59.1664
56.3935
53.2903
49.942
46.4299
42.8298
39.2103
35.632
32.1468
28.7978
25.6191
22.6362
19.867
17.3218
15.0048
12.9147
11.0457
9.38841
7.93075
6.65874
5.5572
4.61036
3.80238
3.11779
2.54175
2.06034
1.6607
1.33109
1.061
0.841081
0.663121
0.519999
0.405591
0.314681
0.242866
0.186466
0.142426
0.10823
0.0818281
0.0615555
0.0460744
0.0343163
0.0254334
0.0187582
0.0137683
0.0100574
0.00731177
0.00529069
0.0038104
0.00273158
0.00194922
0.0013846
0.000979103
0.000689264
0.000483077
0.000337086
0.000234196
0.000162016
0.000111611
7.65706e-05
5.23203e-05
3.5612e-05
2.41508e-05
1.63233e-05
1.10006e-05
7.39706e-06
4.96794e-06
3.33771e-06
2.24857e-06
1.52436e-06
1.04527e-06
7.3016e-07
5.24369e-07
3.91205e-07
3.06169e-07
2.52971e-07
2.2084e-07
2.02692e-07
1.93901e-07
1.91476e-07
1.93518e-07
1.98841e-07
2.06673e-07
5149.42
-533.8
-442.303
-150.114
-23.0709
23.4857
41.7108
50.523
55.9119
59.6802
62.3631
64.1294
65.0517
65.1852
64.5891
63.3315
61.4889
59.1433
56.3806
53.2873
49.9482
46.4446
42.8518
39.2386
35.6655
32.1843
28.8381
25.6612
22.6792
19.9099
17.3639
15.0455
12.9534
11.0821
9.42219
7.96177
6.68693
5.58257
4.63297
3.82236
3.13528
2.55694
2.07343
1.67188
1.34058
1.06899
0.847754
0.668658
0.524562
0.409326
0.317718
0.24532
0.188436
0.143997
0.109476
0.0828093
0.062324
0.0466728
0.0347794
0.0257899
0.019031
0.0139758
0.0102144
0.00742997
0.00537917
0.00387628
0.00278037
0.00198516
0.00141094
0.000998303
0.000703188
0.000493121
0.000344292
0.000239339
0.000165665
0.000114184
7.83724e-05
5.35725e-05
3.64744e-05
2.47378e-05
1.67167e-05
1.12586e-05
7.56058e-06
5.0658e-06
3.39003e-06
2.26934e-06
1.52322e-06
1.02884e-06
7.02942e-07
4.89383e-07
3.50455e-07
2.60955e-07
2.04109e-07
1.68813e-07
1.47753e-07
1.36146e-07
1.30894e-07
1.30024e-07
1.32313e-07
1.36994e-07
5149.38
-533.907
-442.426
-150.229
-23.1781
23.3818
41.6092
50.423
55.8131
59.583
62.269
64.0401
64.969
65.1106
64.5241
63.2772
61.4458
59.1118
56.3606
53.2784
49.9497
46.4556
42.8714
39.2654
35.6983
32.2219
28.8792
25.7046
22.7238
19.9547
17.4081
15.0883
12.9944
11.1207
9.45815
7.99488
6.71708
5.60975
4.65724
3.84383
3.15411
2.57331
2.08754
1.68395
1.35083
1.07762
0.854977
0.674657
0.52951
0.413379
0.321015
0.247986
0.190577
0.145705
0.110831
0.0838777
0.0631611
0.0473248
0.0352844
0.0261786
0.0193286
0.0142024
0.010386
0.00755914
0.0054759
0.00394833
0.00283376
0.00202451
0.0014398
0.00101935
0.000718461
0.000504148
0.000352212
0.000244997
0.000169686
0.000117025
8.03688e-05
5.49661e-05
3.74402e-05
2.54015e-05
1.7168e-05
1.15612e-05
7.75957e-06
5.19284e-06
3.46729e-06
2.31222e-06
1.54238e-06
1.03159e-06
6.94299e-07
4.72728e-07
3.28058e-07
2.34313e-07
1.74195e-07
1.36235e-07
1.12873e-07
9.91564e-08
9.18743e-08
8.89785e-08
8.92012e-08
9.17731e-08
5149.22
-534.264
-442.778
-150.496
-23.3753
23.2204
41.4675
50.2931
55.6904
59.4656
62.1566
63.934
64.8707
65.0217
64.4459
63.2108
61.392
59.0709
56.3326
53.2628
49.9459
46.4626
42.888
39.2904
35.7302
32.2593
28.9208
25.749
22.7699
20.0014
17.4544
15.1334
13.0376
11.1616
9.49633
8.03011
6.74923
5.63878
4.6832
3.86682
3.1743
2.59088
2.10271
1.69694
1.36186
1.08693
0.862769
0.681134
0.534855
0.41776
0.324583
0.250871
0.192896
0.147557
0.1123
0.0850367
0.0640698
0.048033
0.035833
0.0266013
0.0196524
0.014449
0.0105727
0.00769981
0.00558129
0.00402687
0.00289198
0.00206744
0.00147129
0.00104233
0.00073515
0.000516204
0.000360878
0.000251194
0.000174095
0.000120146
8.25652e-05
5.65035e-05
3.85097e-05
2.61405e-05
1.76746e-05
1.19051e-05
7.99009e-06
5.34469e-06
3.56475e-06
2.3722e-06
1.57658e-06
1.04809e-06
6.98601e-07
4.68592e-07
3.18015e-07
2.20055e-07
1.56836e-07
1.16495e-07
9.1204e-08
7.58294e-08
6.70377e-08
6.27002e-08
6.15015e-08
6.26619e-08
5148.59
-535.56
-443.928
-151.24
-23.8154
22.932
41.2486
50.1088
55.5252
59.3128
62.0137
63.8006
64.7477
64.9104
64.3474
63.1262
61.3218
59.0156
56.292
53.2366
49.9333
46.4625
42.8991
39.3113
35.7593
32.2951
28.9617
25.7936
22.8167
20.0493
17.5022
15.1803
13.0829
11.2046
9.53659
8.06736
6.78331
5.66962
4.71083
3.89134
3.19586
2.60967
2.11895
1.71087
1.37371
1.09693
0.871145
0.6881
0.540609
0.42248
0.328428
0.253983
0.195398
0.149556
0.113888
0.0862896
0.0650525
0.0487992
0.036427
0.027059
0.0200031
0.0147163
0.0107752
0.00785245
0.0056957
0.00411217
0.00295523
0.00211411
0.00150554
0.00106734
0.000753318
0.000529336
0.000370322
0.000257953
0.000178907
0.000123555
8.49684e-05
5.81886e-05
3.96847e-05
2.69551e-05
1.82356e-05
1.22887e-05
8.25e-06
5.51878e-06
3.67954e-06
2.44615e-06
1.62252e-06
1.07483e-06
7.12215e-07
4.73204e-07
3.16424e-07
2.14142e-07
1.47851e-07
1.05263e-07
7.82572e-08
6.15028e-08
5.15347e-08
4.61381e-08
4.39452e-08
4.4159e-08
5146.33
-540.111
-447.711
-153.45
-24.9207
22.3583
40.8871
49.8274
55.2772
59.083
61.798
63.5986
64.5601
64.7383
64.1922
62.9888
61.2032
58.9161
56.2117
53.1751
49.8897
46.4357
42.8875
39.3132
35.7729
32.3185
28.993
25.8308
22.8582
20.0934
17.5477
15.226
13.1276
11.2476
9.57741
8.10548
6.81845
5.70162
4.73965
3.91703
3.21852
2.62949
2.13613
1.72563
1.38629
1.10757
0.880073
0.695537
0.54676
0.427531
0.332547
0.25732
0.198084
0.151704
0.115595
0.0876374
0.0661104
0.0496246
0.0370672
0.0275527
0.0203816
0.0150048
0.010994
0.00801739
0.0058194
0.00420443
0.00302369
0.00216463
0.00154264
0.00109445
0.000773018
0.000543583
0.000380575
0.000265294
0.000184138
0.000127264
8.75851e-05
6.00255e-05
4.09677e-05
2.78464e-05
1.88514e-05
1.27115e-05
8.53826e-06
5.71369e-06
3.80995e-06
2.53217e-06
1.67811e-06
1.10963e-06
7.32825e-07
4.8415e-07
3.20774e-07
2.13966e-07
1.44539e-07
9.9735e-08
7.11186e-08
5.31461e-08
4.22098e-08
3.60015e-08
3.30962e-08
3.26738e-08
5142.29
-553.181
-458.942
-159.678
-27.7283
21.1562
40.2848
49.4051
54.8912
58.695
61.4044
63.2052
64.1742
64.3665
63.8399
62.6607
60.9027
58.646
55.9735
52.9695
49.7166
46.2938
42.7752
39.228
35.7122
32.2792
28.972
25.8252
22.865
20.1099
17.5714
15.2546
13.1594
11.2811
9.61116
8.13856
6.8501
5.73132
4.76705
3.94193
3.24086
2.64928
2.15347
1.74067
1.39921
1.11856
0.889351
0.703302
0.553207
0.432844
0.336894
0.260851
0.200932
0.153986
0.117411
0.089074
0.0672395
0.0505066
0.037752
0.0280813
0.0207873
0.0153143
0.0112289
0.00819461
0.00595238
0.00430369
0.00309738
0.00221906
0.00158263
0.00112367
0.000794273
0.000558964
0.000391649
0.000273228
0.000189795
0.000131278
9.04191e-05
6.20169e-05
4.23601e-05
2.88152e-05
1.9522e-05
1.31732e-05
8.85426e-06
5.92857e-06
3.95494e-06
2.62909e-06
1.74207e-06
1.15109e-06
7.58974e-07
4.99901e-07
3.29471e-07
2.17872e-07
1.45176e-07
9.81208e-08
6.79277e-08
4.88227e-08
3.70442e-08
3.01833e-08
2.67527e-08
2.59036e-08
5193.57
-565.415
-483.246
-174.029
-33.9435
18.7776
39.3447
48.8956
54.4395
58.1799
60.8009
62.5243
63.4395
63.6039
63.0737
61.9114
60.187
57.9763
55.3589
52.4155
49.226
45.8671
42.4107
38.9226
35.4615
32.0781
28.8149
25.7064
22.7788
20.0509
17.5345
15.2354
13.1538
11.2856
9.62287
8.15509
6.86953
5.75214
4.78812
3.96243
3.26022
2.66713
2.16961
1.75502
1.41179
1.12945
0.898667
0.711187
0.559816
0.438332
0.341412
0.26454
0.203921
0.15639
0.119331
0.0905962
0.0684386
0.0514451
0.0384818
0.0286454
0.0212207
0.0156454
0.0114802
0.00838442
0.00609492
0.00441014
0.00317645
0.00227748
0.00162557
0.00115507
0.000817118
0.000575501
0.00040356
0.000281765
0.000195884
0.0001356
9.34728e-05
6.41639e-05
4.38625e-05
2.98614e-05
2.02471e-05
1.36732e-05
9.19732e-06
6.16265e-06
4.11371e-06
2.73603e-06
1.81351e-06
1.1983e-06
7.89714e-07
5.19482e-07
3.41511e-07
2.24824e-07
1.48692e-07
9.93115e-08
6.75335e-08
4.73358e-08
3.4791e-08
2.7382e-08
2.35539e-08
2.24248e-08
6199.28
-344.935
-479.581
-190.321
-42.8891
15.096
37.9539
48.4562
54.4747
58.5253
61.3848
63.2979
64.3587
64.6271
64.1625
63.0314
61.3089
59.0757
56.4164
53.4165
50.1601
46.7279
43.1949
39.6298
36.0934
32.638
29.3073
26.1364
23.152
20.373
17.8112
15.472
13.3553
11.4565
9.76743
8.27694
6.97192
5.83792
4.85978
4.02211
3.30977
2.70815
2.20345
1.78284
1.43458
1.14805
0.913781
0.723422
0.569678
0.446246
0.347735
0.269569
0.207901
0.159525
0.121789
0.0925136
0.069927
0.0525947
0.0393654
0.0293211
0.0217348
0.0160346
0.0117735
0.00860426
0.0062589
0.00453186
0.00326636
0.00234357
0.00167391
0.00119027
0.000842616
0.000593887
0.000416756
0.000291192
0.000202587
0.000140344
9.6815e-05
6.65079e-05
4.5499e-05
3.09988e-05
2.1034e-05
1.42152e-05
9.56892e-06
6.41624e-06
4.28592e-06
2.85237e-06
1.89167e-06
1.25047e-06
8.24268e-07
5.42141e-07
3.56168e-07
2.34114e-07
1.54394e-07
1.02618e-07
6.92422e-08
4.79799e-08
3.4727e-08
2.68511e-08
2.27255e-08
2.14326e-08
)
;

boundaryField
{
    xmin
    {
        type            calculated;
        value           uniform 0;
    }
    xmax
    {
        type            calculated;
        value           nonuniform List<scalar> 
100
(
5424.37
-301.818
-419.633
-166.531
-37.5279
13.209
33.2097
42.3992
47.6654
51.2097
53.7117
55.3856
56.3138
56.5487
56.1422
55.1525
53.6453
51.6912
49.3643
46.7394
43.8901
40.8869
37.7956
34.6761
31.5817
28.5582
25.6439
22.8693
20.258
17.8264
15.5848
13.538
11.6859
10.0245
8.5465
7.24232
6.10043
5.10818
4.2523
3.51935
2.89605
2.36963
1.92802
1.55998
1.25525
1.00454
0.799559
0.632994
0.498468
0.390466
0.304268
0.235872
0.181913
0.139585
0.106565
0.0809494
0.0611861
0.0460203
0.0344447
0.025656
0.019018
0.0140303
0.0103018
0.00752873
0.00547654
0.00396538
0.00285807
0.00205062
0.00146467
0.00104149
0.00073729
0.000519652
0.000364663
0.000254794
0.000177265
0.000122802
8.47145e-05
5.81957e-05
3.98129e-05
2.71253e-05
1.84061e-05
1.24397e-05
8.37423e-06
5.61565e-06
3.75165e-06
2.49733e-06
1.65675e-06
1.09575e-06
7.22874e-07
4.76067e-07
3.13402e-07
2.06673e-07
1.36994e-07
9.17731e-08
6.26619e-08
4.4159e-08
3.26738e-08
2.59036e-08
2.24248e-08
2.14326e-08
)
;
    }
    ymin
    {
        type            calculated;
        value           uniform 0;
    }
    ymax
    {
        type            calculated;
        value           nonuniform List<scalar> 
100
(
6199.28
-344.935
-479.581
-190.321
-42.8891
15.096
37.9539
48.4562
54.4747
58.5253
61.3848
63.2979
64.3587
64.6271
64.1625
63.0314
61.3089
59.0757
56.4164
53.4165
50.1601
46.7279
43.1949
39.6298
36.0934
32.638
29.3073
26.1364
23.152
20.373
17.8112
15.472
13.3553
11.4565
9.76743
8.27694
6.97192
5.83792
4.85978
4.02211
3.30977
2.70815
2.20345
1.78284
1.43458
1.14805
0.913781
0.723422
0.569678
0.446246
0.347735
0.269569
0.207901
0.159525
0.121789
0.0925136
0.069927
0.0525947
0.0393654
0.0293211
0.0217348
0.0160346
0.0117735
0.00860426
0.0062589
0.00453186
0.00326636
0.00234357
0.00167391
0.00119027
0.000842616
0.000593887
0.000416756
0.000291192
0.000202587
0.000140344
9.6815e-05
6.65079e-05
4.5499e-05
3.09988e-05
2.1034e-05
1.42152e-05
9.56892e-06
6.41624e-06
4.28592e-06
2.85237e-06
1.89167e-06
1.25047e-06
8.24268e-07
5.42141e-07
3.56168e-07
2.34114e-07
1.54394e-07
1.02618e-07
6.92422e-08
4.79799e-08
3.4727e-08
2.68511e-08
2.27255e-08
2.14326e-08
)
;
    }
    frontAndBack
    {
        type            empty;
    }
}


// ************************************************************************* //
