/*--------------------------------*- C++ -*----------------------------------*\
  =========                 |
  \\      /  F ield         | OpenFOAM: The Open Source CFD Toolbox
   \\    /   O peration     | Website:  https://openfoam.org
    \\  /    A nd           | Version:  10
     \\/     M anipulation  |
\*---------------------------------------------------------------------------*/
FoamFile
{
    format      ascii;
    class       volScalarField;
    location    "6";
    object      ddt0(T);
}
// * * * * * * * * * * * * * * * * * * * * * * * * * * * * * * * * * * * * * //

dimensions      [0 0 -1 1 0 0 0];

internalField   nonuniform List<scalar> 
10000
(
5813.21
2679.02
2693.48
2741.23
2752.47
2754.87
2755.51
2755.73
2755.82
2755.87
2755.9
2755.92
2755.95
2755.97
2755.99
2756.01
2756.03
2756.05
2756.07
2756.09
2756.1
2756.11
2756.13
2756.14
2756.15
2756.16
2756.17
2756.17
2756.18
2756.18
2756.19
2756.19
2756.19
2756.2
2756.2
2756.2
2756.2
2756.2
2756.2
2756.19
2756.19
2756.19
2756.19
2756.18
2756.18
2756.18
2756.17
2756.17
2756.16
2756.16
2756.16
2756.15
2756.15
2756.14
2756.14
2756.13
2756.13
2756.13
2756.12
2756.12
2756.11
2756.11
2756.11
2756.1
2756.1
2756.1
2756.09
2756.09
2756.09
2756.09
2756.08
2756.08
2756.08
2756.08
2756.08
2756.07
2756.07
2756.07
2756.07
2756.07
2756.07
2756.07
2756.06
2756.06
2756.06
2756.06
2756.06
2756.06
2756.06
2756.06
2756.06
2756.06
2756.05
2756.05
2756.01
2755.77
2754.38
2747.44
2735.54
3147.59
3112.44
-781.097
-608.507
-492.727
-465.914
-460.368
-458.979
-458.513
-458.309
-458.192
-458.104
-458.027
-457.956
-457.888
-457.823
-457.762
-457.704
-457.649
-457.598
-457.55
-457.506
-457.465
-457.428
-457.394
-457.363
-457.335
-457.311
-457.289
-457.271
-457.255
-457.242
-457.231
-457.223
-457.217
-457.213
-457.211
-457.211
-457.213
-457.216
-457.221
-457.227
-457.235
-457.243
-457.253
-457.263
-457.274
-457.286
-457.298
-457.311
-457.324
-457.337
-457.35
-457.363
-457.376
-457.389
-457.402
-457.414
-457.427
-457.439
-457.45
-457.462
-457.473
-457.483
-457.493
-457.503
-457.512
-457.521
-457.53
-457.538
-457.545
-457.552
-457.559
-457.565
-457.571
-457.577
-457.582
-457.587
-457.591
-457.596
-457.6
-457.604
-457.607
-457.611
-457.614
-457.617
-457.619
-457.622
-457.624
-457.627
-457.629
-457.631
-457.634
-457.638
-457.65
-457.705
-458.011
-459.741
-468.268
-495.006
-417.938
3101.42
-649.755
-378.851
-230.941
-195.934
-188.404
-186.478
-185.824
-185.528
-185.347
-185.206
-185.08
-184.961
-184.849
-184.741
-184.639
-184.542
-184.45
-184.365
-184.285
-184.211
-184.142
-184.08
-184.023
-183.971
-183.925
-183.883
-183.847
-183.816
-183.789
-183.767
-183.749
-183.734
-183.724
-183.718
-183.714
-183.714
-183.717
-183.723
-183.731
-183.741
-183.754
-183.768
-183.783
-183.801
-183.819
-183.838
-183.859
-183.879
-183.901
-183.922
-183.944
-183.966
-183.988
-184.009
-184.031
-184.052
-184.072
-184.092
-184.112
-184.131
-184.149
-184.166
-184.183
-184.199
-184.215
-184.23
-184.243
-184.257
-184.269
-184.281
-184.292
-184.303
-184.313
-184.322
-184.331
-184.339
-184.347
-184.354
-184.361
-184.367
-184.373
-184.378
-184.383
-184.388
-184.393
-184.397
-184.401
-184.405
-184.409
-184.412
-184.416
-184.422
-184.433
-184.463
-184.601
-185.42
-189.916
-206.487
-191.283
3137.81
-552.936
-251.385
-93.0288
-54.9804
-46.5688
-44.3498
-43.5695
-43.1988
-42.9605
-42.7681
-42.594
-42.4298
-42.2731
-42.1236
-41.9813
-41.8464
-41.7192
-41.5999
-41.4886
-41.3853
-41.2899
-41.2024
-41.1226
-41.0504
-40.9857
-40.9281
-40.8774
-40.8335
-40.7961
-40.7649
-40.7396
-40.72
-40.7057
-40.6965
-40.692
-40.692
-40.6961
-40.704
-40.7153
-40.7299
-40.7472
-40.7671
-40.7893
-40.8134
-40.8391
-40.8663
-40.8945
-40.9237
-40.9536
-40.9839
-41.0144
-41.045
-41.0755
-41.1058
-41.1357
-41.165
-41.1938
-41.2219
-41.2491
-41.2755
-41.301
-41.3256
-41.3492
-41.3718
-41.3933
-41.4139
-41.4334
-41.4519
-41.4695
-41.486
-41.5017
-41.5164
-41.5302
-41.5432
-41.5554
-41.5669
-41.5776
-41.5876
-41.597
-41.6058
-41.614
-41.6217
-41.629
-41.6358
-41.6422
-41.6482
-41.6538
-41.6592
-41.6643
-41.6695
-41.6752
-41.683
-41.6965
-41.7212
-41.7695
-41.9513
-43.11
-48.0908
-43.1439
3146.73
-530.346
-221.203
-59.9061
-20.8386
-12.0593
-9.68288
-8.81528
-8.38175
-8.08991
-7.84805
-7.62691
-7.41756
-7.21758
-7.02656
-6.84468
-6.67225
-6.5096
-6.35694
-6.2144
-6.08204
-5.95983
-5.84766
-5.74539
-5.65282
-5.56974
-5.49588
-5.43096
-5.37469
-5.32673
-5.28677
-5.25444
-5.22937
-5.21119
-5.19951
-5.19393
-5.19404
-5.19944
-5.20971
-5.22445
-5.24323
-5.26566
-5.29135
-5.3199
-5.35094
-5.38411
-5.41906
-5.45546
-5.49301
-5.5314
-5.57036
-5.60964
-5.649
-5.68824
-5.72714
-5.76555
-5.8033
-5.84025
-5.8763
-5.91133
-5.94527
-5.97804
-6.00959
-6.03988
-6.06888
-6.09657
-6.12296
-6.14804
-6.17183
-6.19435
-6.21562
-6.23568
-6.25458
-6.27235
-6.28903
-6.30468
-6.31936
-6.3331
-6.34597
-6.35801
-6.36929
-6.37985
-6.38975
-6.39903
-6.40774
-6.41592
-6.42363
-6.4309
-6.43779
-6.44437
-6.45085
-6.45783
-6.46703
-6.48271
-6.51239
-6.56123
-6.62471
-6.7848
-7.379
-5.15995
3148.68
-525.654
-214.707
-52.577
-13.1504
-4.20218
-1.73012
-0.795228
-0.305828
0.0368557
0.326859
0.594221
0.848052
1.09077
1.32273
1.54365
1.75313
1.9508
2.13638
2.30969
2.47067
2.61935
2.75583
2.88027
2.9929
3.09399
3.18383
3.26277
3.33117
3.38941
3.43791
3.4771
3.50742
3.52934
3.54334
3.5499
3.54952
3.54269
3.52994
3.51175
3.48862
3.46106
3.42954
3.39453
3.3565
3.31589
3.27311
3.22857
3.18265
3.1357
3.08807
3.04006
2.99195
2.94402
2.89649
2.84957
2.80346
2.75833
2.71431
2.67154
2.6301
2.59009
2.55158
2.51461
2.47921
2.44541
2.41321
2.3826
2.35358
2.3261
2.30015
2.27567
2.25263
2.23096
2.21061
2.19153
2.17364
2.15689
2.14121
2.12653
2.11279
2.09993
2.08787
2.07657
2.06597
2.056
2.04662
2.03777
2.02941
2.02145
2.01374
2.00588
1.99652
1.98201
1.9543
1.90315
1.83345
1.79805
2.01287
3.07593
3149.22
-524.465
-213.032
-50.6275
-11.0484
-2.00544
0.535517
1.52774
2.06906
2.46076
2.79781
3.11055
3.40811
3.69286
3.96506
4.22435
4.47024
4.70229
4.92018
5.1237
5.31276
5.48739
5.64768
5.79384
5.92611
6.0448
6.15025
6.24286
6.32306
6.3913
6.44806
6.49384
6.52919
6.55464
6.57076
6.57812
6.57731
6.56893
6.55356
6.5318
6.50424
6.47147
6.43404
6.39253
6.34746
6.29936
6.24873
6.19603
6.14172
6.08622
6.02992
5.97318
5.91634
5.85972
5.80358
5.74818
5.69374
5.64045
5.58849
5.538
5.48909
5.44188
5.39644
5.35281
5.31105
5.27117
5.23319
5.19709
5.16285
5.13046
5.09985
5.07099
5.04382
5.01828
4.9943
4.97182
4.95074
4.93101
4.91254
4.89526
4.87908
4.86394
4.84976
4.83646
4.82399
4.81227
4.80124
4.79084
4.78102
4.7717
4.76281
4.7541
4.74489
4.73292
4.7123
4.6721
4.6047
4.54414
4.70135
5.29292
3149.4
-524.055
-212.45
-49.9257
-10.2612
-1.15152
1.44669
2.49123
3.08205
3.52135
3.9044
4.2616
4.60204
4.92799
5.23962
5.53649
5.81802
6.08373
6.33323
6.56628
6.78278
6.98275
7.1663
7.33363
7.48503
7.62085
7.74147
7.84735
7.93896
8.01684
8.08153
8.13362
8.17371
8.20244
8.22045
8.22841
8.227
8.21688
8.19876
8.1733
8.1412
8.10312
8.05971
8.01162
7.95946
7.90384
7.84532
7.78444
7.72173
7.65766
7.59269
7.52724
7.46169
7.39639
7.33166
7.2678
7.20505
7.14365
7.08377
7.0256
6.96927
6.91488
6.86254
6.8123
6.76421
6.7183
6.67457
6.63301
6.5936
6.55632
6.5211
6.48789
6.45663
6.42725
6.39967
6.37381
6.34958
6.3269
6.30567
6.28581
6.26724
6.24985
6.23357
6.21831
6.20399
6.19055
6.1779
6.16599
6.15473
6.14408
6.13396
6.12426
6.11471
6.10426
6.08954
6.06205
6.00751
5.925
5.94387
6.4185
3149.48
-523.869
-212.176
-49.5789
-9.85229
-0.686849
1.96331
3.0574
3.69605
4.1817
4.60969
5.01035
5.3927
5.75891
6.10906
6.44261
6.75893
7.05746
7.33777
7.5996
7.84282
8.06744
8.27359
8.46149
8.63145
8.78386
8.91915
9.03782
9.14043
9.22754
9.29979
9.35784
9.40237
9.4341
9.45375
9.46207
9.45984
9.44781
9.42676
9.39747
9.3607
9.31721
9.26772
9.21298
9.15367
9.09048
9.02403
8.95495
8.88383
8.81119
8.73755
8.66339
8.58914
8.51519
8.4419
8.36961
8.29859
8.22909
8.16135
8.09553
8.03181
7.9703
7.9111
7.85429
7.79992
7.74801
7.69857
7.6516
7.60706
7.56492
7.52513
7.48761
7.45231
7.41912
7.38798
7.35878
7.33143
7.30584
7.28189
7.25949
7.23854
7.21894
7.2006
7.18341
7.1673
7.15216
7.13793
7.12453
7.11188
7.09991
7.08857
7.07778
7.06745
7.0572
7.04544
7.02647
6.98428
6.89137
6.80419
7.32584
3149.53
-523.756
-212.002
-49.3472
-9.56703
-0.350626
2.3487
3.49051
4.17559
4.70638
5.17817
5.6212
6.04439
6.44982
6.83747
7.20672
7.55686
7.88729
8.19753
8.48729
8.75642
9.00494
9.23298
9.44077
9.62866
9.79706
9.94647
10.0774
10.1905
10.2864
10.3658
10.4295
10.4781
10.5125
10.5335
10.5419
10.5386
10.5245
10.5003
10.4671
10.4255
10.3765
10.3208
10.2593
10.1928
10.122
10.0476
9.97027
9.89071
9.80949
9.7272
9.64434
9.5614
9.47882
9.39701
9.31632
9.23706
9.15952
9.08395
9.01054
8.93946
8.87087
8.80487
8.74153
8.68092
8.62307
8.56797
8.51563
8.46601
8.41907
8.37474
8.33296
8.29365
8.25671
8.22204
8.18955
8.15912
8.13065
8.10402
8.07912
8.05584
8.03407
8.0137
7.99463
7.97674
7.95996
7.94419
7.92934
7.91533
7.90209
7.88955
7.87765
7.86635
7.85557
7.84469
7.83019
7.79669
7.69894
7.52986
8.15931
3149.56
-523.669
-211.862
-49.1555
-9.32568
-0.0608418
2.68579
3.87382
4.60398
5.17866
5.69303
6.17725
6.64012
7.08363
7.50766
7.91152
8.29445
8.65577
8.99497
9.31174
9.60592
9.8775
10.1266
10.3536
10.5587
10.7425
10.9054
11.048
11.1711
11.2753
11.3614
11.4302
11.4826
11.5193
11.5413
11.5496
11.545
11.5285
11.5011
11.4636
11.4171
11.3624
11.3005
11.2322
11.1584
11.0799
10.9974
10.9119
10.8239
10.7341
10.6431
10.5516
10.46
10.3688
10.2785
10.1895
10.102
10.0165
9.93311
9.85216
9.77379
9.69817
9.62541
9.55561
9.48881
9.42506
9.36436
9.3067
9.25205
9.20035
9.15155
9.10555
9.06228
9.02162
8.98348
8.94774
8.91428
8.88297
8.85371
8.82635
8.80078
8.77688
8.75453
8.73361
8.71401
8.69562
8.67834
8.66209
8.64677
8.6323
8.6186
8.60562
8.59332
8.58172
8.57072
8.55823
8.53035
8.43057
8.19481
8.94256
3149.58
-523.592
-211.735
-48.9801
-9.1028
0.20866
3.00103
4.23384
5.00771
5.62493
6.18058
6.7047
7.20598
7.68633
8.14554
8.58285
8.99743
9.38856
9.75569
10.0985
10.4168
10.7105
10.9799
11.2252
11.4468
11.6452
11.8209
11.9747
12.1072
12.2192
12.3115
12.385
12.4407
12.4794
12.5021
12.5099
12.5038
12.4847
12.4537
12.4119
12.3603
12.2998
12.2315
12.1562
12.0751
11.9888
11.8984
11.8046
11.7081
11.6097
11.5101
11.4099
11.3097
11.2099
11.1112
11.0138
10.9182
10.8247
10.7336
10.6452
10.5596
10.477
10.3975
10.3213
10.2484
10.1788
10.1126
10.0496
9.99
9.9336
9.88037
9.83021
9.78303
9.73871
9.69714
9.6582
9.62175
9.58766
9.5558
9.52604
9.49823
9.47225
9.44796
9.42523
9.40396
9.38401
9.36528
9.34767
9.33108
9.31543
9.30062
9.2866
9.27332
9.26085
9.24931
9.23757
9.21333
9.11327
8.82439
9.67861
3149.61
-523.519
-211.615
-48.8138
-8.8907
0.465773
3.30235
4.57845
5.39458
6.05292
6.64844
7.21106
7.74941
8.26527
8.75838
9.2279
9.67293
10.0927
10.4867
10.8544
11.1958
11.5108
11.7995
12.0623
12.2996
12.5119
12.6998
12.864
13.0053
13.1245
13.2225
13.3003
13.3588
13.3991
13.4222
13.4292
13.4212
13.3992
13.3646
13.3182
13.2613
13.1948
13.12
13.0378
12.9492
12.8551
12.7566
12.6545
12.5495
12.4426
12.3343
12.2255
12.1166
12.0084
11.9012
11.7955
11.6918
11.5905
11.4917
11.3958
11.303
11.2135
11.1275
11.0449
10.9659
10.8905
10.8188
10.7507
10.6862
10.6251
10.5675
10.5132
10.4622
10.4143
10.3693
10.3272
10.2879
10.251
10.2166
10.1845
10.1545
10.1265
10.1003
10.0758
10.0529
10.0315
10.0114
9.99245
9.97464
9.95785
9.94198
9.92697
9.91276
9.89943
9.8872
9.87558
9.85367
9.75449
9.42634
10.3665
3149.63
-523.45
-211.5
-48.6544
-8.68729
0.712563
3.59176
4.90958
5.76643
6.46437
7.09826
7.69793
8.2719
8.82188
9.34752
9.84792
10.3221
10.7694
11.189
11.5806
11.9439
12.2791
12.5863
12.8657
13.1178
13.3432
13.5425
13.7165
13.866
13.9918
14.095
14.1765
14.2374
14.2789
14.3019
14.3078
14.2976
14.2726
14.2339
14.1828
14.1204
14.0479
13.9665
13.8771
13.781
13.6791
13.5725
13.462
13.3486
13.233
13.1162
12.9987
12.8813
12.7645
12.649
12.5351
12.4234
12.3142
12.2078
12.1045
12.0047
11.9083
11.8157
11.7268
11.6418
11.5608
11.4836
11.4104
11.341
11.2754
11.2135
11.1551
11.1003
11.0488
11.0006
10.9554
10.9131
10.8736
10.8367
10.8023
10.7702
10.7402
10.7121
10.686
10.6615
10.6386
10.6171
10.5969
10.578
10.5601
10.5432
10.5273
10.5122
10.498
10.4851
10.4733
10.4528
10.3553
10.0014
11.0047
3149.65
-523.384
-211.39
-48.5017
-8.49226
0.949284
3.86942
5.22732
6.12326
6.85919
7.52987
8.16504
8.77313
9.35575
9.9125
10.4424
10.9445
11.4178
11.8619
12.2762
12.6605
13.0148
13.3394
13.6345
13.9005
14.1382
14.3481
14.5312
14.6881
14.82
14.9278
15.0125
15.0754
15.1175
15.1402
15.1446
15.1319
15.1035
15.0607
15.0046
14.9366
14.8578
14.7696
14.673
14.5693
14.4595
14.3447
14.2259
14.1039
13.9798
13.8544
13.7283
13.6023
13.4771
13.3533
13.2312
13.1115
12.9946
12.8806
12.7701
12.6632
12.5601
12.4609
12.3659
12.275
12.1883
12.1058
12.0275
11.9533
11.8832
11.817
11.7547
11.6962
11.6412
11.5897
11.5415
11.4964
11.4542
11.4149
11.3782
11.344
11.3121
11.2823
11.2545
11.2285
11.2042
11.1814
11.16
11.14
11.1211
11.1033
11.0864
11.0705
11.0556
11.042
11.0298
11.0102
10.9149
10.5476
11.5919
3149.68
-523.321
-211.285
-48.3558
-8.30581
1.17566
4.13499
5.53122
6.46454
7.23678
7.94261
8.61166
9.25228
9.86602
10.4524
11.0104
11.5389
12.0371
12.5043
12.94
13.3441
13.7165
14.0575
14.3673
14.6464
14.8955
15.1152
15.3066
15.4703
15.6076
15.7193
15.8068
15.8711
15.9135
15.9354
15.9379
15.9225
15.8904
15.8431
15.7818
15.708
15.6229
15.5277
15.4239
15.3125
15.1947
15.0717
14.9445
14.8141
14.6814
14.5473
14.4127
14.2782
14.1446
14.0125
13.8824
13.7548
13.6301
13.5087
13.391
13.2771
13.1673
13.0617
12.9606
12.8638
12.7716
12.6838
12.6005
12.5216
12.447
12.3767
12.3105
12.2483
12.1899
12.1352
12.084
12.0361
11.9914
11.9497
11.9108
11.8746
11.8408
11.8093
11.7799
11.7524
11.7267
11.7027
11.6803
11.6591
11.6393
11.6206
11.603
11.5863
11.5707
11.5564
11.5437
11.5247
11.4322
11.0622
12.1272
3149.7
-523.261
-211.186
-48.2168
-8.12823
1.3913
4.38798
5.82075
6.78966
7.59647
8.33572
9.03699
9.70851
10.3518
10.9662
11.5508
12.1044
12.626
13.1151
13.5711
13.9937
14.3831
14.7393
15.0628
15.354
15.6137
15.8424
16.0413
16.2112
16.3531
16.4683
16.5579
16.6231
16.6654
16.686
16.6863
16.6677
16.6317
16.5797
16.5131
16.4332
16.3415
16.2394
16.1281
16.009
15.8832
15.7519
15.6163
15.4774
15.3362
15.1936
15.0504
14.9075
14.7656
14.6252
14.4871
14.3516
14.2193
14.0906
13.9657
13.8449
13.7285
13.6166
13.5094
13.4069
13.3092
13.2162
13.128
13.0445
12.9655
12.8911
12.8211
12.7552
12.6935
12.6357
12.5815
12.531
12.4838
12.4398
12.3987
12.3605
12.3249
12.2917
12.2608
12.2319
12.205
12.1798
12.1562
12.1341
12.1134
12.0939
12.0755
12.0582
12.0419
12.027
12.0138
11.9951
11.9059
11.5419
12.6101
3149.71
-523.204
-211.091
-48.0851
-7.95984
1.59584
4.62799
6.09542
7.09809
7.93766
8.70858
9.44033
10.1411
10.8123
11.4532
12.0629
12.64
13.1838
13.6933
14.1682
14.6083
15.0134
15.3839
15.72
16.0224
16.2916
16.5286
16.7342
16.9094
17.0554
17.1734
17.2645
17.3302
17.3718
17.3908
17.3885
17.3665
17.3263
17.2693
17.197
17.111
17.0126
16.9033
16.7845
16.6576
16.5237
16.3842
16.2401
16.0927
15.943
15.7918
15.6402
15.4889
15.3387
15.1902
15.0441
14.9009
14.761
14.625
14.493
14.3655
14.2426
14.1245
14.0113
13.9031
13.8
13.7019
13.6089
13.5208
13.4376
13.3591
13.2853
13.2159
13.1509
13.09
13.0331
12.9799
12.9302
12.8839
12.8408
12.8007
12.7633
12.7285
12.6961
12.6659
12.6377
12.6114
12.5868
12.5638
12.5422
12.522
12.5029
12.485
12.4681
12.4527
12.4391
12.4205
12.335
11.9842
13.0407
3149.73
-523.151
-211.002
-47.9608
-7.80085
1.78901
4.85467
6.35485
7.38941
8.25989
9.06068
9.82116
10.5494
11.2469
11.9127
12.5459
13.1452
13.7095
14.2382
14.7308
15.187
15.6067
15.9903
16.3381
16.6506
16.9286
17.1728
17.3844
17.5642
17.7136
17.8337
17.9259
17.9915
18.032
18.0489
18.0436
18.0178
17.9731
17.9108
17.8328
17.7403
17.6351
17.5186
17.3922
17.2573
17.1153
16.9675
16.8151
16.6592
16.5009
16.3413
16.1812
16.0215
15.8631
15.7066
15.5526
15.4017
15.2544
15.1111
14.9722
14.838
14.7086
14.5844
14.4653
14.3516
14.2431
14.1401
14.0423
13.9497
13.8623
13.7799
13.7024
13.6296
13.5613
13.4974
13.4377
13.3819
13.3299
13.2815
13.2363
13.1943
13.1552
13.1189
13.085
13.0535
13.0242
12.9968
12.9713
12.9474
12.9251
12.9041
12.8844
12.8659
12.8486
12.8328
12.8187
12.8001
12.7189
12.3864
13.4191
3149.75
-523.101
-210.918
-47.844
-7.65141
1.97062
5.06783
6.59881
7.66333
8.56286
9.39168
10.1791
10.9332
11.6552
12.3443
12.9995
13.6193
14.2029
14.7494
15.2582
15.7293
16.1625
16.5581
16.9164
17.2381
17.5238
17.7746
17.9913
18.175
18.327
18.4487
18.5413
18.6063
18.6452
18.6596
18.651
18.6211
18.5715
18.5038
18.4197
18.3207
18.2085
18.0846
17.9505
17.8076
17.6575
17.5013
17.3405
17.1761
17.0094
16.8413
16.6728
16.5049
16.3383
16.1738
16.012
15.8536
15.6989
15.5485
15.4027
15.2619
15.1262
14.9959
14.8711
14.7518
14.6382
14.5302
14.4277
14.3308
14.2393
14.153
14.0719
13.9957
13.9243
13.8575
13.795
13.7368
13.6824
13.6318
13.5848
13.541
13.5002
13.4624
13.4272
13.3944
13.364
13.3356
13.3092
13.2845
13.2614
13.2398
13.2196
13.2006
13.1829
13.1666
13.1521
13.1337
13.057
12.7467
13.7461
3149.77
-523.054
-210.84
-47.7348
-7.51156
2.14061
5.26735
6.82717
7.91973
8.84641
9.70142
10.514
11.2921
12.037
12.7478
13.4233
14.0623
14.6636
15.2264
15.7503
16.235
16.6804
17.0869
17.4547
17.7846
18.0772
18.3335
18.5545
18.7414
18.8954
19.018
19.1104
19.1743
19.2112
19.2226
19.2103
19.176
19.1213
19.0479
18.9575
18.8518
18.7325
18.601
18.4592
18.3083
18.1499
17.9855
17.8162
17.6434
17.4682
17.2917
17.1149
16.9388
16.7641
16.5917
16.4222
16.2563
16.0943
15.9369
15.7844
15.637
15.4951
15.3589
15.2284
15.1037
14.985
14.8721
14.7651
14.6639
14.5683
14.4783
14.3936
14.3142
14.2397
14.17
14.1049
14.0442
13.9877
13.935
13.886
13.8405
13.7982
13.7589
13.7224
13.6885
13.657
13.6276
13.6003
13.5749
13.5512
13.529
13.5083
13.4889
13.4708
13.4542
13.4393
13.421
13.3491
13.0633
14.0223
3149.78
-523.01
-210.767
-47.6331
-7.38131
2.29896
5.45324
7.03991
8.15857
9.11051
9.98987
10.8258
11.6262
12.3922
13.1231
13.8174
14.4739
15.0915
15.6693
16.2069
16.704
17.1605
17.5766
17.9529
18.29
18.5885
18.8495
19.0741
19.2634
19.4187
19.5415
19.6333
19.6955
19.7298
19.738
19.7216
19.6825
19.6224
19.5431
19.4462
19.3336
19.207
19.068
18.9183
18.7593
18.5927
18.4199
18.2422
18.061
17.8774
17.6926
17.5075
17.3233
17.1406
16.9604
16.7833
16.6099
16.4409
16.2765
16.1173
15.9636
15.8156
15.6735
15.5374
15.4075
15.2837
15.1661
15.0546
14.9492
14.8497
14.7559
14.6678
14.5851
14.5077
14.4352
14.3676
14.3045
14.2458
14.1911
14.1403
14.0931
14.0492
14.0086
13.9708
13.9358
13.9033
13.8731
13.845
13.8189
13.7945
13.7718
13.7507
13.7309
13.7125
13.6956
13.6805
13.6622
13.5952
13.3353
14.2489
3149.79
-522.97
-210.699
-47.5388
-7.26057
2.44577
5.62556
7.23713
8.37995
9.35526
10.2571
11.1146
11.9355
12.7211
13.4703
14.1819
14.8544
15.4868
16.0783
16.6282
17.1364
17.6027
18.0275
18.4112
18.7544
19.058
19.3229
19.5502
19.7412
19.8971
20.0196
20.1101
20.1701
20.2015
20.2059
20.1851
20.1409
20.0752
19.9896
19.8862
19.7665
19.6325
19.4858
19.3281
19.1611
18.9862
18.8051
18.619
18.4294
18.2374
18.0443
17.851
17.6587
17.4682
17.2802
17.0956
16.915
16.7389
16.5677
16.402
16.2419
16.0879
15.94
15.7985
15.6634
15.5347
15.4125
15.2966
15.1871
15.0837
14.9864
14.8949
14.8091
14.7287
14.6536
14.5834
14.5181
14.4572
14.4006
14.348
14.2992
14.2539
14.2119
14.173
14.1369
14.1034
14.0723
14.0435
14.0168
13.9919
13.9687
13.9472
13.9271
13.9084
13.8913
13.8759
13.8578
13.7957
13.5619
14.4271
3149.81
-522.932
-210.637
-47.4519
-7.14923
2.58115
5.78448
7.41897
8.58405
9.58084
10.5034
11.3806
12.2204
13.0237
13.7897
14.5169
15.204
15.8499
16.4536
17.0146
17.5326
18.0076
18.44
18.83
19.1784
19.4861
19.754
19.9832
20.1751
20.3311
20.4526
20.5412
20.5987
20.6266
20.6269
20.6013
20.5518
20.4801
20.3881
20.2778
20.151
20.0094
19.8549
19.6893
19.5141
19.331
19.1415
18.947
18.7491
18.5488
18.3474
18.1461
17.9458
17.7475
17.5519
17.3599
17.1721
16.989
16.8112
16.639
16.4728
16.3129
16.1594
16.0125
15.8723
15.7388
15.612
15.4919
15.3784
15.2712
15.1704
15.0756
14.9867
14.9035
14.8258
14.7532
14.6856
14.6227
14.5642
14.5099
14.4595
14.4128
14.3696
14.3295
14.2924
14.258
14.2262
14.1967
14.1693
14.144
14.1204
14.0985
14.0782
14.0593
14.0421
14.0265
14.0085
13.9511
13.743
14.5583
3149.82
-522.898
-210.58
-47.3722
-7.04713
2.70531
5.9302
7.58569
8.77112
9.78754
10.7289
11.6242
12.481
13.3005
14.0817
14.823
15.5232
16.181
16.7956
17.3664
17.8931
18.3757
18.8144
19.2098
19.5625
19.8733
20.1434
20.3738
20.566
20.7212
20.8412
20.9275
20.9818
21.0059
21.0017
20.971
20.9157
20.8379
20.7393
20.622
20.4878
20.3386
20.1763
20.0026
19.8192
19.6278
19.43
19.2273
19.021
18.8125
18.603
18.3936
18.1854
17.9794
17.7764
17.5771
17.3821
17.1922
17.0078
16.8293
16.6571
16.4914
16.3324
16.1802
16.0351
15.8969
15.7657
15.6414
15.5239
15.4131
15.3088
15.2108
15.119
15.033
14.9527
14.8778
14.8081
14.7432
14.6829
14.627
14.5751
14.5271
14.4826
14.4414
14.4034
14.3682
14.3356
14.3054
14.2776
14.2517
14.2278
14.2056
14.1851
14.1661
14.1487
14.133
14.1151
14.0624
13.8789
14.644
3149.83
-522.867
-210.528
-47.2996
-6.95406
2.81846
6.06299
7.73757
8.94148
9.97572
10.9341
11.8457
12.718
13.552
14.3468
15.1007
15.8125
16.4809
17.1051
17.6844
18.2185
18.7075
19.1516
19.5513
19.9073
20.2205
20.4919
20.7228
20.9145
21.0684
21.1863
21.2697
21.3204
21.3402
21.3311
21.295
21.2338
21.1495
21.0442
20.9197
20.778
20.6211
20.4509
20.2691
20.0775
19.8779
19.6717
19.4607
19.2462
19.0295
18.8119
18.5947
18.3787
18.1651
17.9546
17.7482
17.5463
17.3497
17.1588
16.9741
16.7959
16.6246
16.4602
16.3029
16.1529
16.0101
15.8746
15.7462
15.6249
15.5105
15.4029
15.3018
15.2071
15.1185
15.0357
14.9585
14.8867
14.8199
14.7579
14.7003
14.6471
14.5977
14.5521
14.5099
14.4709
14.4349
14.4017
14.3709
14.3426
14.3163
14.2921
14.2697
14.249
14.2299
14.2124
14.1966
14.1789
14.1305
13.9701
14.6858
3149.84
-522.839
-210.481
-47.2339
-6.86982
2.92087
6.18314
7.87495
9.09552
10.1458
11.1195
12.0457
12.9317
13.7787
14.5855
15.3506
16.0726
16.7503
17.3827
17.9692
18.5096
19.0039
19.4523
19.8554
20.2138
20.5284
20.8004
21.031
21.2216
21.3736
21.4888
21.5688
21.6155
21.6307
21.6164
21.5745
21.5071
21.4162
21.3038
21.172
21.0228
20.8581
20.6799
20.49
20.2902
20.0823
19.8679
19.6487
19.4259
19.2012
18.9756
18.7505
18.5269
18.3058
18.0881
17.8746
17.6659
17.4627
17.2655
17.0747
16.8907
16.7138
16.5441
16.3819
16.2271
16.0799
15.9401
15.8078
15.6828
15.5649
15.454
15.3499
15.2524
15.1612
15.076
14.9966
14.9228
14.8541
14.7904
14.7314
14.6767
14.6262
14.5795
14.5363
14.4965
14.4597
14.4258
14.3945
14.3657
14.3391
14.3146
14.292
14.2711
14.252
14.2345
14.2187
14.2013
14.1568
14.0176
14.6856
3149.84
-522.814
-210.438
-47.1748
-6.79414
3.01285
6.291
7.99823
9.23368
10.2982
11.2856
12.2247
13.1229
13.9813
14.7986
15.5734
16.3042
16.9898
17.6292
18.2218
18.7674
19.2659
19.7176
20.1231
20.483
20.7983
21.0701
21.2997
21.4885
21.6381
21.75
21.8262
21.8684
21.8786
21.8587
21.8108
21.7369
21.6392
21.5197
21.3804
21.2235
21.051
20.8647
20.6667
20.4587
20.2426
20.02
19.7926
19.5617
19.329
19.0956
18.8627
18.6316
18.4031
18.1782
17.9578
17.7424
17.5327
17.3293
17.1326
16.943
16.7606
16.5858
16.4187
16.2593
16.1077
15.9638
15.8276
15.699
15.5777
15.4637
15.3567
15.2564
15.1627
15.0752
14.9937
14.9179
14.8475
14.7822
14.7217
14.6657
14.614
14.5662
14.5221
14.4815
14.444
14.4095
14.3777
14.3485
14.3216
14.2968
14.2741
14.2531
14.234
14.2165
14.2007
14.1835
14.1428
14.0229
14.6451
3149.85
-522.792
-210.401
-47.1222
-6.72677
3.09469
6.38695
8.10783
9.35644
10.4336
11.4329
12.3833
13.2922
14.1604
14.9869
15.77
16.5083
17.2005
17.8456
18.4432
18.9928
19.4945
19.9485
20.3555
20.7161
21.0312
21.3021
21.5301
21.7165
21.863
21.9713
22.0431
22.0805
22.0852
22.0595
22.0053
21.9248
21.82
21.6932
21.5464
21.3817
21.2012
21.0069
20.8008
20.5846
20.3603
20.1296
19.894
19.6552
19.4145
19.1733
18.9329
18.6943
18.4586
18.2267
17.9994
17.7775
17.5615
17.3521
17.1495
16.9543
16.7667
16.5869
16.4149
16.2511
16.0952
15.9473
15.8074
15.6752
15.5507
15.4336
15.3237
15.2209
15.1247
15.035
14.9514
14.8737
14.8016
14.7347
14.6728
14.6156
14.5627
14.514
14.469
14.4276
14.3895
14.3545
14.3222
14.2926
14.2654
14.2405
14.2176
14.1966
14.1775
14.1601
14.1443
14.1275
14.0901
13.9874
14.5663
3149.86
-522.772
-210.368
-47.0758
-6.66742
3.16677
6.47139
8.20423
9.46431
10.5524
11.5622
12.5223
13.4403
14.317
15.1511
15.9412
16.6857
17.3833
18.033
18.6344
19.187
19.6909
20.1463
20.5539
20.9143
21.2286
21.4979
21.7235
21.907
22.0499
22.154
22.2211
22.2532
22.2522
22.2203
22.1596
22.0722
21.9603
21.826
21.6715
21.499
21.3106
21.1082
20.8939
20.6697
20.4372
20.1984
19.9548
19.708
19.4596
19.2107
18.9628
18.7169
18.4741
18.2353
18.0014
17.773
17.5509
17.3355
17.1273
16.9266
16.7339
16.5491
16.3726
16.2043
16.0443
15.8925
15.7489
15.6134
15.4856
15.3656
15.253
15.1476
15.049
14.9572
14.8716
14.7921
14.7184
14.65
14.5868
14.5283
14.4744
14.4247
14.3789
14.3368
14.298
14.2625
14.2298
14.1999
14.1725
14.1474
14.1244
14.1034
14.0843
14.067
14.0513
14.0348
14.0005
13.9131
14.4512
3149.86
-522.755
-210.339
-47.0355
-6.61578
3.22943
6.54475
8.2879
9.55786
10.6553
11.674
12.6424
13.5681
14.4517
15.2923
16.088
16.8374
17.5392
18.1925
18.7965
19.3511
19.8562
20.3122
20.7195
21.079
21.3917
21.6587
21.8814
22.0614
22.2002
22.2997
22.3617
22.3881
22.3812
22.3429
22.2754
22.1809
22.0617
21.9199
21.7577
21.5773
21.3809
21.1704
20.948
20.7157
20.4752
20.2283
19.9768
19.7222
19.466
19.2097
18.9544
18.7013
18.4515
18.206
17.9655
17.7309
17.5027
17.2815
17.0678
16.8619
16.664
16.4745
16.2935
16.1209
15.9569
15.8014
15.6542
15.5153
15.3845
15.2616
15.1464
15.0385
14.9377
14.8437
14.7563
14.675
14.5997
14.5299
14.4653
14.4058
14.3508
14.3002
14.2536
14.2108
14.1715
14.1355
14.1025
14.0723
14.0446
14.0194
13.9964
13.9754
13.9564
13.9392
13.9237
13.9075
13.876
13.8018
14.3018
3149.87
-522.74
-210.314
-47.0009
-6.57154
3.28307
6.60749
8.35938
9.63768
10.743
11.769
12.7443
13.6763
14.5657
15.4112
16.2114
16.9646
17.6695
18.3251
18.9309
19.4865
19.9919
20.4475
20.8539
21.2117
21.5221
21.7862
22.0055
22.1814
22.3157
22.4101
22.4666
22.4871
22.4739
22.4289
22.3545
22.2528
22.1261
21.9767
21.8067
21.6184
21.4139
21.1955
20.965
20.7246
20.4761
20.2213
19.9619
19.6996
19.4359
19.1721
18.9096
18.6495
18.3929
18.1408
17.8939
17.6531
17.4191
17.1922
16.9731
16.762
16.5593
16.3652
16.1797
16.003
15.8351
15.6759
15.5253
15.3832
15.2495
15.1238
15.0059
14.8956
14.7927
14.6967
14.6074
14.5245
14.4476
14.3764
14.3107
14.25
14.1941
14.1426
14.0953
14.0519
14.012
13.9756
13.9422
13.9117
13.8839
13.8586
13.8355
13.8146
13.7957
13.7787
13.7634
13.7476
13.7185
13.6559
14.1203
3149.87
-522.727
-210.293
-46.9718
-6.53437
3.3281
6.66009
8.41922
9.70438
10.8162
11.8482
12.8289
13.7659
14.6597
15.5091
16.3125
17.0683
17.7752
18.4322
19.0387
19.5944
20.0994
20.5538
20.9584
21.3139
21.6214
21.882
22.0973
22.2687
22.398
22.4869
22.5376
22.552
22.5322
22.4804
22.3988
22.2898
22.1555
21.9983
21.8205
21.6243
21.4119
21.1854
20.9469
20.6985
20.4421
20.1794
19.9124
19.6425
19.3713
19.1002
18.8306
18.5636
18.3004
18.0418
17.7887
17.5419
17.3021
17.0697
16.8454
16.6293
16.4218
16.2232
16.0335
15.8528
15.6811
15.5183
15.3644
15.2192
15.0825
14.9541
14.8338
14.7212
14.6161
14.5182
14.4272
14.3426
14.2643
14.1918
14.1249
14.0631
14.0063
13.954
13.906
13.862
13.8217
13.7848
13.7511
13.7204
13.6925
13.667
13.644
13.6231
13.6044
13.5876
13.5724
13.5571
13.5303
13.4774
13.9088
3149.88
-522.717
-210.276
-46.948
-6.50393
3.36493
6.70304
8.46798
9.7586
10.8755
11.9121
12.8971
13.8378
14.7348
15.5869
16.3924
17.1498
17.8577
18.5151
19.1214
19.6764
20.18
20.6326
21.0347
21.3872
21.6911
21.9478
22.1585
22.325
22.4489
22.5321
22.5766
22.5845
22.5579
22.4991
22.4103
22.2938
22.1519
21.9869
21.8013
21.5971
21.3767
21.1422
20.8958
20.6395
20.3753
20.1049
19.8302
19.5529
19.2744
18.9962
18.7196
18.4459
18.1761
17.9112
17.652
17.3994
17.154
16.9163
16.6868
16.4659
16.2538
16.0508
15.8569
15.6723
15.497
15.3308
15.1736
15.0254
14.886
14.755
14.6322
14.5175
14.4103
14.3105
14.2178
14.1317
14.052
13.9782
13.9102
13.8474
13.7897
13.7366
13.688
13.6434
13.6026
13.5654
13.5314
13.5005
13.4724
13.447
13.4239
13.4032
13.3846
13.368
13.3531
13.3382
13.3134
13.2689
13.6697
3149.88
-522.709
-210.262
-46.9291
-6.47985
3.39399
6.73684
8.50625
9.80102
10.9217
11.9617
12.9497
13.8929
14.792
15.6457
16.4523
17.2102
17.9181
18.5751
19.1804
19.7338
20.2353
20.6853
21.0843
21.4332
21.7331
21.9852
22.191
22.3521
22.4703
22.5474
22.5856
22.5867
22.5532
22.4872
22.3909
22.2669
22.1173
21.9446
21.751
21.5389
21.3106
21.0682
20.8139
20.5498
20.2778
19.9999
19.7177
19.433
19.1474
18.8622
18.5788
18.2985
18.0223
17.7513
17.4862
17.2279
16.9771
16.7342
16.4997
16.2741
16.0575
15.8502
15.6524
15.464
15.2851
15.1156
14.9553
14.8042
14.6621
14.5286
14.4035
14.2866
14.1775
14.0759
13.9815
13.894
13.8129
13.7379
13.6688
13.6051
13.5465
13.4927
13.4435
13.3984
13.3572
13.3196
13.2854
13.2543
13.2261
13.2006
13.1776
13.157
13.1385
13.1222
13.1076
13.0931
13.0701
13.0327
13.4051
3149.88
-522.703
-210.252
-46.9148
-6.46178
3.41573
6.76204
8.53464
9.83231
10.9556
11.9978
12.9876
13.9322
14.8323
15.6866
16.4933
17.2508
17.9579
18.6135
19.217
19.7682
20.2669
20.7136
21.109
21.4537
21.749
21.9962
22.1966
22.352
22.4641
22.5349
22.5664
22.5606
22.52
22.4466
22.3429
22.2112
22.0539
21.8733
21.6719
21.452
21.2158
20.9656
20.7035
20.4317
20.1521
19.8666
19.5771
19.2852
18.9926
18.7006
18.4106
18.1238
17.8414
17.5644
17.2936
17.0297
16.7736
16.5256
16.2864
16.0561
15.8352
15.6239
15.4221
15.2301
15.0478
14.875
14.7118
14.5579
14.4131
14.2772
14.1499
14.031
13.92
13.8167
13.7207
13.6317
13.5493
13.4732
13.403
13.3384
13.2791
13.2246
13.1747
13.1291
13.0875
13.0496
13.0152
12.984
12.9557
12.9302
12.9073
12.8868
12.8685
12.8524
12.8381
12.824
12.8028
12.7712
13.1173
3149.88
-522.699
-210.245
-46.905
-6.44936
3.4306
6.77915
8.55376
9.85316
10.9779
12.0212
13.0118
13.9568
14.8569
15.7108
16.5167
17.273
17.9784
18.6319
19.2328
19.781
20.2763
20.7192
21.1103
21.4504
21.7407
21.9824
22.1772
22.3265
22.4323
22.4964
22.521
22.5083
22.4603
22.3795
22.2683
22.1289
21.9638
21.7755
21.5662
21.3385
21.0945
20.8365
20.5667
20.2873
20.0002
19.7074
19.4107
19.1118
18.8123
18.5136
18.2171
17.9241
17.6357
17.3528
17.0764
16.8072
16.5459
16.2931
16.0491
15.8145
15.5894
15.374
15.1686
14.973
14.7873
14.6115
14.4454
14.2888
14.1415
14.0033
13.8738
13.7529
13.6401
13.5351
13.4376
13.3472
13.2636
13.1864
13.1153
13.0498
12.9897
12.9346
12.8841
12.8381
12.7961
12.7579
12.7233
12.6919
12.6636
12.6381
12.6152
12.5948
12.5768
12.5609
12.5469
12.5333
12.5136
12.487
12.8086
3149.88
-522.697
-210.241
-46.8993
-6.44219
3.43906
6.78872
8.56423
9.86428
10.9894
12.0328
13.0232
13.9676
14.8668
15.7194
16.5236
17.2779
17.9808
18.6315
19.2292
19.7737
20.2651
20.7036
21.0899
21.425
21.7098
21.9458
22.1345
22.2775
22.3767
22.434
22.4516
22.4316
22.3763
22.288
22.1691
22.0221
21.8493
21.6532
21.4361
21.2006
20.9489
20.6832
20.4059
20.119
19.8246
19.5246
19.2209
18.9151
18.6088
18.3036
18.0009
17.7018
17.4074
17.1189
16.837
16.5627
16.2964
16.0388
15.7903
15.5514
15.3222
15.1031
14.894
14.695
14.5061
14.3273
14.1584
13.9992
13.8495
13.709
13.5775
13.4547
13.3401
13.2336
13.1346
13.0429
12.9582
12.8799
12.8078
12.7415
12.6806
12.6249
12.574
12.5275
12.4851
12.4467
12.4118
12.3803
12.352
12.3265
12.3037
12.2835
12.2657
12.25
12.2364
12.2232
12.2049
12.1825
12.4814
3149.88
-522.696
-210.24
-46.8974
-6.43991
3.44157
6.7913
8.56667
9.86638
10.9909
12.0335
13.0227
13.9657
14.8631
15.7135
16.5153
17.2668
17.9667
18.6139
19.2077
19.7481
20.2349
20.6685
21.0497
21.3792
21.6583
21.8882
22.0705
22.207
22.2994
22.3497
22.3601
22.3328
22.27
22.1742
22.0477
21.8929
21.7124
21.5086
21.2838
21.0406
20.7813
20.5081
20.2233
19.9291
19.6275
19.3205
19.0098
18.6973
18.3845
18.073
17.7641
17.459
17.159
16.865
16.5779
16.2984
16.0273
15.7652
15.5123
15.2693
15.0362
14.8133
14.6007
14.3985
14.2065
14.0248
13.8532
13.6915
13.5395
13.3969
13.2634
13.1387
13.0225
12.9144
12.8141
12.7211
12.6352
12.5559
12.4829
12.4158
12.3543
12.298
12.2465
12.1996
12.1569
12.1182
12.0832
12.0516
12.0232
11.9978
11.9751
11.955
11.9374
11.9221
11.9087
11.896
11.879
11.86
12.1378
3149.88
-522.696
-210.241
-46.899
-6.44214
3.4386
6.78743
8.56173
9.86016
10.9832
12.024
13.0112
13.952
14.8468
15.6945
16.4931
17.2412
17.9372
18.5803
19.1698
19.7055
20.1873
20.6156
20.9912
21.3149
21.5878
21.8114
21.9871
22.1168
22.2022
22.2454
22.2486
22.2138
22.1436
22.0402
21.906
21.7436
21.5554
21.3439
21.1115
20.8607
20.5939
20.3133
20.0212
19.7198
19.4112
19.0972
18.7799
18.4608
18.1417
17.824
17.5091
17.1983
16.8927
16.5934
16.3012
16.0169
15.7411
15.4745
15.2175
14.9704
14.7335
14.5071
14.2911
14.0857
13.8908
13.7063
13.5321
13.368
13.2138
13.0691
12.9337
12.8072
12.6894
12.5799
12.4782
12.3841
12.297
12.2168
12.1429
12.0751
12.0129
11.956
11.9041
11.8568
11.8138
11.7749
11.7397
11.708
11.6796
11.6542
11.6316
11.6117
11.5943
11.5792
11.5662
11.554
11.5381
11.522
11.7801
3149.88
-522.698
-210.244
-46.9038
-6.4485
3.43059
6.77764
8.55001
9.84633
10.967
12.0054
12.9898
13.9276
14.8192
15.6633
16.4582
17.2022
17.8939
18.5324
19.117
19.6474
20.1238
20.5465
20.9161
21.2337
21.5002
21.7172
21.8862
22.0089
22.0872
22.1232
22.1189
22.0768
21.999
21.888
21.7462
21.5762
21.3804
21.1613
20.9214
20.6631
20.3889
20.1011
19.8018
19.4934
19.1779
18.8572
18.5333
18.2078
17.8825
17.5588
17.2382
16.9218
16.6109
16.3064
16.0092
15.7202
15.44
15.1691
14.908
14.657
14.4165
14.1866
13.9674
13.759
13.5613
13.3741
13.1974
13.031
12.8746
12.7279
12.5907
12.4626
12.3432
12.2322
12.1293
12.034
11.946
11.8648
11.7901
11.7215
11.6587
11.6013
11.5489
11.5013
11.458
11.4188
11.3835
11.3518
11.3233
11.2979
11.2755
11.2557
11.2385
11.2237
11.211
11.1992
11.1844
11.1707
11.4105
3149.88
-522.702
-210.25
-46.9116
-6.45863
3.41801
6.76249
8.53214
9.82558
10.9432
11.9783
12.9593
13.8934
14.7812
15.6212
16.4117
17.1511
17.838
18.4714
19.0506
19.5755
20.0461
20.4628
20.8262
21.1373
21.3973
21.6075
21.7695
21.8851
21.9562
21.9849
21.9732
21.9236
21.8383
21.7197
21.5704
21.3928
21.1895
20.9629
20.7156
20.45
20.1685
19.8736
19.5673
19.252
18.9298
18.6026
18.2723
17.9406
17.6093
17.2798
16.9536
16.6318
16.3157
16.0062
15.7043
15.4107
15.1261
14.8511
14.5861
14.3315
14.0874
13.8542
13.6319
13.4206
13.2201
13.0304
12.8513
12.6827
12.5242
12.3756
12.2366
12.1069
11.9861
11.8738
11.7696
11.6732
11.5842
11.5021
11.4266
11.3574
11.294
11.236
11.1832
11.1352
11.0917
11.0523
11.0168
10.985
10.9565
10.9312
10.9089
10.8893
10.8723
10.8577
10.8453
10.834
10.8202
10.8085
11.0312
3149.88
-522.706
-210.257
-46.922
-6.47214
3.40131
6.74249
8.50871
9.7986
10.9125
11.9438
12.9207
13.8505
14.7338
15.5692
16.3548
17.0891
17.7708
18.3987
18.9722
19.4912
19.9557
20.3661
20.723
21.0275
21.2806
21.4839
21.6388
21.7473
21.8111
21.8324
21.8133
21.7562
21.6634
21.5374
21.3806
21.1955
20.9847
20.7508
20.4962
20.2234
19.9349
19.6329
19.3198
18.9979
18.6691
18.3355
17.999
17.6614
17.3242
16.9891
16.6574
16.3304
16.0093
15.695
15.3885
15.0906
14.8018
14.5228
14.254
13.9958
13.7484
13.512
13.2868
13.0726
12.8695
12.6773
12.4959
12.3252
12.1647
12.0143
11.8737
11.7424
11.6201
11.5065
11.4012
11.3038
11.2138
11.1309
11.0546
10.9847
10.9207
10.8623
10.8091
10.7607
10.7169
10.6774
10.6418
10.6099
10.5814
10.5561
10.5339
10.5144
10.4976
10.4833
10.4712
10.4604
10.4475
10.4375
10.6442
3149.88
-522.712
-210.266
-46.9348
-6.48869
3.38091
6.71815
8.48033
9.76605
10.8757
11.9024
12.8748
13.7998
14.6782
15.5084
16.2888
17.0176
17.6935
18.3156
18.8832
19.3959
19.8541
20.2579
20.6082
20.9058
21.152
21.3482
21.496
21.5972
21.6537
21.6676
21.6411
21.5766
21.4763
21.3429
21.1786
20.9862
20.7681
20.527
20.2652
19.9854
19.6899
19.3811
19.0614
18.7329
18.3978
18.058
17.7155
17.3721
17.0293
16.6888
16.3518
16.0198
15.6938
15.3749
15.064
14.7618
14.469
14.1862
13.9138
13.6522
13.4016
13.1621
12.934
12.7171
12.5115
12.317
12.1334
11.9606
11.7983
11.6461
11.5039
11.3711
11.2475
11.1327
11.0262
10.9277
10.8368
10.7531
10.6762
10.6056
10.5411
10.4822
10.4286
10.3799
10.3359
10.2961
10.2604
10.2284
10.2
10.1747
10.1526
10.1333
10.1167
10.1026
10.0908
10.0803
10.0683
10.0598
10.2515
3149.88
-522.718
-210.277
-46.9497
-6.50793
3.35725
6.68999
8.44757
9.72858
10.8334
11.8552
12.8225
13.7423
14.6153
15.44
16.2146
16.9376
17.6076
18.2235
18.7847
19.2911
19.7426
20.1397
20.4832
20.7738
21.013
21.2021
21.3426
21.4365
21.4857
21.4923
21.4584
21.3865
21.2789
21.138
20.9665
20.7669
20.5416
20.2934
20.0246
19.7379
19.4356
19.1203
18.7941
18.4593
18.118
17.7722
17.4239
17.0748
16.7266
16.3808
16.0388
15.702
15.3713
15.048
14.7328
14.4265
14.1299
13.8434
13.5675
13.3026
13.0489
12.8065
12.5756
12.3562
12.1481
11.9514
11.7657
11.591
11.4268
11.273
11.1292
10.995
10.8701
10.7541
10.6466
10.5471
10.4554
10.3709
10.2933
10.2221
10.1571
10.0977
10.0437
9.99475
9.95046
9.91053
9.87469
9.84264
9.81415
9.78897
9.76689
9.74773
9.73131
9.71747
9.70595
9.69589
9.68467
9.6774
9.85511
3149.87
-522.725
-210.288
-46.9664
-6.52952
3.33074
6.65848
8.41098
9.68682
10.7863
11.8028
12.7645
13.6788
14.546
15.3648
16.1335
16.8503
17.514
18.1235
18.6783
19.178
19.6227
20.013
20.3495
20.6331
20.8652
21.047
21.1804
21.267
21.3089
21.3081
21.267
21.1877
21.0728
20.9248
20.7461
20.5393
20.307
20.0518
19.7762
19.4828
19.174
18.8522
18.5197
18.1787
17.8315
17.4799
17.126
16.7715
16.418
16.0671
15.7203
15.3788
15.0437
14.716
14.3967
14.0866
13.7862
13.4962
13.217
12.949
12.6923
12.4471
12.2136
11.9917
11.7813
11.5824
11.3947
11.2181
11.0523
10.8968
10.7516
10.616
10.4899
10.3728
10.2642
10.1638
10.0712
9.98601
9.90772
9.836
9.77044
9.71066
9.65632
9.60705
9.56252
9.52242
9.48645
9.45435
9.42584
9.40069
9.3787
9.35967
9.34342
9.32979
9.31854
9.30885
9.29837
9.29215
9.45677
3149.87
-522.733
-210.302
-46.9847
-6.55314
3.30176
6.62408
8.37109
9.64137
10.7352
11.7459
12.7018
13.6101
14.4713
15.284
16.0464
16.7568
17.414
18.0169
18.565
19.0579
19.4958
19.8791
20.2086
20.4851
20.71
20.8847
21.0108
21.0902
21.1248
21.1168
21.0684
20.9819
20.8599
20.7047
20.5189
20.3052
20.0661
19.8041
19.5219
19.2219
18.9067
18.5787
18.2401
17.8932
17.5402
17.183
16.8236
16.4639
16.1054
15.7496
15.3981
15.0521
14.7127
14.3809
14.0577
13.7438
13.4399
13.1466
12.8642
12.5931
12.3335
12.0857
11.8497
11.6254
11.4128
11.2119
11.0223
10.8439
10.6764
10.5194
10.3728
10.2359
10.1086
9.99041
9.88088
9.77962
9.68623
9.60028
9.52136
9.44908
9.38304
9.32285
9.26816
9.2186
9.17384
9.13357
9.09749
9.06531
9.03679
9.01167
8.98975
8.97084
8.95475
8.94132
8.93032
8.92098
8.91118
8.90585
9.05824
3149.87
-522.742
-210.316
-47.0044
-6.57847
3.2707
6.58724
8.32842
9.59279
10.6807
11.6853
12.6351
13.5372
14.392
15.1983
15.9542
16.6581
17.3087
17.9049
18.4461
18.9321
19.3631
19.7394
20.0617
20.3312
20.5489
20.7164
20.8353
20.9075
20.935
20.9198
20.8642
20.7707
20.6416
20.4795
20.2868
20.0663
19.8205
19.5519
19.2632
18.957
18.6355
18.3014
17.9569
17.6043
17.2457
16.8832
16.5186
16.1538
15.7904
15.43
15.074
14.7236
14.3801
14.0444
13.7174
13.4
13.0927
12.7961
12.5107
12.2367
11.9744
11.724
11.4856
11.2591
11.0444
10.8415
10.6501
10.47
10.3009
10.1425
9.99446
9.85641
9.72797
9.60872
9.49825
9.39615
9.302
9.21536
9.13585
9.06303
8.99652
8.93594
8.88091
8.83107
8.78609
8.74565
8.70945
8.67721
8.64866
8.62356
8.60171
8.5829
8.56695
8.55371
8.54294
8.53393
8.52476
8.52019
8.66113
3149.87
-522.75
-210.33
-47.0251
-6.60523
3.23791
6.54838
8.28344
9.54165
10.6233
11.6217
12.5651
13.4607
14.3091
15.1088
15.8581
16.5553
17.199
17.7884
18.3227
18.8018
19.2257
19.595
19.9103
20.1726
20.3832
20.5436
20.6554
20.7205
20.7408
20.7186
20.6561
20.5556
20.4196
20.2506
20.0513
19.8241
19.5718
19.2968
19.0019
18.6895
18.362
18.0221
17.6719
17.3138
16.9498
16.582
16.2124
15.8428
15.4747
15.1098
14.7495
14.395
14.0475
13.7081
13.3775
13.0566
12.7461
12.4464
12.1581
11.8814
11.6165
11.3637
11.1229
10.8943
10.6776
10.4728
10.2797
10.0979
9.92733
9.76756
9.61825
9.47902
9.3495
9.22927
9.11791
9.015
8.92011
8.83283
8.75273
8.6794
8.61245
8.55148
8.49612
8.44601
8.40082
8.36021
8.32389
8.29157
8.26299
8.23791
8.21611
8.19739
8.18158
8.1685
8.15794
8.14924
8.14063
8.13673
8.26697
3149.86
-522.76
-210.346
-47.0468
-6.63314
3.20373
6.5079
8.23662
9.48844
10.5637
11.5556
12.4924
13.3815
14.2232
15.0162
15.7587
16.4491
17.086
17.6685
18.1958
18.6679
19.0849
19.4471
19.7553
20.0106
20.2142
20.3675
20.4723
20.5304
20.5437
20.5146
20.4452
20.3379
20.1952
20.0196
19.8137
19.5801
19.3215
19.0403
18.7393
18.4209
18.0877
17.7421
17.3865
17.023
16.6539
16.2811
15.9067
15.5324
15.1598
14.7906
14.4262
14.0678
13.7165
13.3734
13.0394
12.7153
12.4016
12.099
11.8079
11.5286
11.2612
11.0061
10.7632
10.5325
10.3139
10.1073
9.91249
9.72922
9.55719
9.3961
9.24556
9.10522
8.97467
8.8535
8.74129
8.6376
8.54202
8.45411
8.37345
8.29963
8.23225
8.17091
8.11523
8.06486
8.01945
7.97868
7.94224
7.90984
7.88122
7.85614
7.83438
7.81574
7.80004
7.78712
7.77675
7.76832
7.76025
7.75691
7.87716
3149.86
-522.769
-210.362
-47.0692
-6.66194
3.16848
6.46617
8.18838
9.43365
10.5023
11.4876
12.4178
13.3001
14.1351
14.9213
15.657
16.3406
16.9706
17.5461
18.0665
18.5317
18.9416
19.2969
19.5981
19.8464
20.043
20.1894
20.2872
20.3384
20.345
20.3091
20.2329
20.119
19.9698
19.7878
19.5755
19.3357
19.0709
18.7837
18.4769
18.1528
17.814
17.4629
17.102
16.7334
16.3593
15.9818
15.6027
15.224
14.8471
14.4738
14.1054
13.7432
13.3883
13.0418
12.7046
12.3773
12.0607
11.7553
11.4615
11.1797
10.91
10.6527
10.4077
10.175
9.95461
9.74632
9.54993
9.36519
9.1918
9.02944
8.87775
8.73634
8.60481
8.48274
8.36971
8.26529
8.16904
8.08053
7.99934
7.92505
7.85725
7.79555
7.73956
7.68893
7.64331
7.60237
7.56581
7.53332
7.50466
7.47958
7.45785
7.43927
7.42367
7.41088
7.40068
7.3925
7.3849
7.38204
7.49296
3149.86
-522.779
-210.378
-47.092
-6.69138
3.13245
6.42353
8.13911
9.37773
10.4397
11.4182
12.3417
13.2173
14.0455
14.8249
15.5537
16.2304
16.8535
17.4222
17.9357
18.3939
18.7969
19.1452
19.4396
19.681
19.8707
20.0103
20.1014
20.1458
20.1457
20.1032
20.0205
19.9002
19.7446
19.5563
19.3379
19.092
18.8213
18.5284
18.2158
17.8862
17.5421
17.1858
16.8198
16.4463
16.0674
15.6853
15.3018
14.9188
14.5379
14.1606
13.7885
13.4227
13.0644
12.7146
12.3742
12.0439
11.7245
11.4165
11.1202
10.836
10.5641
10.3046
10.0576
9.82312
9.60099
9.39109
9.19319
9.00706
8.83238
8.66882
8.51602
8.3736
8.24113
8.11821
8.0044
7.89927
7.80238
7.7133
7.63159
7.55684
7.48864
7.42659
7.37031
7.31943
7.2736
7.23249
7.19579
7.16323
7.13451
7.10941
7.0877
7.06917
7.05365
7.04097
7.03092
7.02296
7.0158
7.01335
7.11557
3149.85
-522.789
-210.395
-47.1152
-6.72125
3.09591
6.38031
8.08919
9.32109
10.3763
11.3481
12.2648
13.1336
13.955
14.7276
15.4496
16.1194
16.7357
17.2974
17.8041
18.2555
18.6517
18.9932
19.2807
19.5154
19.6984
19.8312
19.9157
19.9536
19.947
19.898
19.809
19.6824
19.5206
19.3263
19.102
18.8503
18.5739
18.2753
17.9574
17.6225
17.2731
16.9119
16.541
16.1628
15.7794
15.3929
15.0052
14.6181
14.2333
13.8523
13.4765
13.1073
12.7457
12.3928
12.0494
11.7164
11.3943
11.0837
10.785
10.4985
10.2245
9.96302
9.71418
9.47792
9.25415
9.04271
8.84339
8.65593
8.48002
8.31532
8.16147
8.01808
7.88472
7.76099
7.64643
7.54063
7.44313
7.35349
7.27129
7.19611
7.12752
7.06513
7.00855
6.95742
6.91138
6.87011
6.83328
6.80062
6.77184
6.74671
6.725
6.70651
6.69105
6.67847
6.66854
6.66079
6.65401
6.65191
6.74601
3149.85
-522.799
-210.411
-47.1386
-6.75134
3.05912
6.3368
8.03895
9.26411
10.3126
11.2776
12.1876
13.0496
13.8642
14.63
15.3452
16.0082
16.6177
17.1727
17.6726
18.1172
18.5067
18.8415
19.1224
19.3504
19.5268
19.6532
19.7312
19.7627
19.7498
19.6946
19.5994
19.4668
19.299
19.0989
18.8688
18.6115
18.3296
18.0257
17.7025
17.3625
17.0083
16.6422
16.2667
15.884
15.4963
15.1055
14.7138
14.3228
13.9343
13.5497
13.1705
12.798
12.4333
12.0774
11.7313
11.3955
11.0709
10.7579
10.457
10.1684
9.8923
9.62895
9.37832
9.1404
8.91507
8.70218
8.5015
8.31278
8.1357
7.96992
7.81507
7.67076
7.53656
7.41205
7.29678
7.19033
7.09225
7.00208
6.91941
6.8438
6.77483
6.71211
6.65525
6.60387
6.55763
6.51618
6.47922
6.44646
6.41762
6.39245
6.37073
6.35226
6.33685
6.32434
6.31452
6.30694
6.30051
6.29869
6.38524
3149.85
-522.809
-210.428
-47.162
-6.78145
3.02229
6.29326
7.9887
9.20714
10.2489
11.2072
12.1104
12.9657
13.7736
14.5327
15.2412
15.8975
16.5003
17.0486
17.5419
17.9799
18.3628
18.691
18.9654
19.1869
19.357
19.477
19.5487
19.574
19.555
19.4937
19.3926
19.2541
19.0807
18.8749
18.6393
18.3766
18.0894
17.7804
17.4522
17.1074
16.7484
16.3777
15.9978
15.6108
15.2189
14.8242
14.4286
14.0339
13.6419
13.2539
12.8715
12.4959
12.1282
11.7695
11.4207
11.0824
10.7554
10.4401
10.137
9.84635
9.5684
9.30324
9.05093
8.81143
8.58463
8.37036
8.1684
7.97848
7.80029
7.63349
7.47769
7.3325
7.19749
7.07224
6.9563
6.84923
6.75059
6.65992
6.57679
6.50077
6.43144
6.3684
6.31126
6.25964
6.21318
6.17157
6.13447
6.1016
6.07268
6.04746
6.02572
6.00726
5.99188
5.97942
5.96969
5.96226
5.95613
5.95456
6.03408
3149.84
-522.819
-210.445
-47.1853
-6.81142
2.98565
6.24996
7.93873
9.15051
10.1856
11.1373
12.0338
12.8825
13.6837
14.4361
15.138
15.7878
16.384
16.9258
17.4125
17.8441
18.2205
18.5424
18.8104
19.0257
19.1895
19.3034
19.369
19.3883
19.3634
19.2963
19.1895
19.0454
18.8664
18.6552
18.4143
18.1464
17.8542
17.5403
17.2073
16.8578
16.4943
16.1193
15.7351
15.344
14.9482
14.5497
14.1505
13.7523
13.3568
12.9657
12.5802
12.2016
11.8312
11.4698
11.1184
10.7777
10.4484
10.131
9.82586
9.5333
9.25354
8.98669
8.73278
8.49178
8.26358
8.04801
7.84483
7.65378
7.47454
7.30676
7.15006
7.00404
6.86826
6.74231
6.62573
6.51807
6.41888
6.32773
6.24416
6.16775
6.09807
6.03471
5.97729
5.92543
5.87878
5.83699
5.79975
5.76676
5.73776
5.71248
5.69071
5.67223
5.65687
5.64445
5.63479
5.62748
5.62162
5.62024
5.69322
3149.84
-522.829
-210.461
-47.2084
-6.8411
2.94938
6.20709
7.88927
9.09447
10.123
11.0681
11.9581
12.8002
13.5949
14.3409
15.0363
15.6796
16.2694
16.8048
17.2852
17.7104
18.0806
18.3962
18.6581
18.8673
19.0251
19.133
19.1928
19.2063
19.1756
19.103
18.9907
18.8411
18.6569
18.4405
18.1945
17.9217
17.6247
17.3061
16.9685
16.6146
16.2468
15.8676
15.4794
15.0845
14.6849
14.2828
13.8801
13.4786
13.0799
12.6857
12.2973
11.916
11.5428
11.179
10.8252
10.4822
10.1508
9.8313
9.52423
9.22986
8.94838
8.67992
8.42451
8.1821
7.95258
7.73577
7.53144
7.33932
7.15908
6.99038
6.83282
6.68601
6.5495
6.42288
6.30568
6.19746
6.09776
6.00614
5.92215
5.84536
5.77533
5.71168
5.65399
5.60189
5.55503
5.51307
5.47568
5.44258
5.41348
5.38813
5.36632
5.34782
5.33245
5.32006
5.31044
5.30323
5.2976
5.29637
5.36329
3149.84
-522.839
-210.477
-47.2312
-6.87034
2.91364
6.16486
7.84057
9.0393
10.0614
11
11.8836
12.7193
13.5076
14.2472
14.9363
15.5733
16.1569
16.686
17.1603
17.5794
17.9435
18.2531
18.5091
18.7124
18.8644
18.9665
19.0207
19.0286
18.9925
18.9144
18.7968
18.6421
18.4528
18.2314
17.9807
17.7031
17.4015
17.0784
16.7365
16.3784
16.0065
15.6234
15.2313
14.8327
14.4296
14.024
13.6181
13.2134
12.8117
12.4146
12.0234
11.6395
11.2638
10.8976
10.5415
10.1964
9.86294
9.54155
9.23266
8.93658
8.65349
8.38351
8.12668
7.88293
7.65216
7.43418
7.22877
7.03563
6.85445
6.68487
6.5265
6.37893
6.24174
6.11448
5.99669
5.88793
5.78775
5.69567
5.61128
5.53411
5.46376
5.39981
5.34185
5.28953
5.24246
5.20032
5.16278
5.12955
5.10035
5.07493
5.05306
5.03452
5.01914
5.00675
4.99716
4.99003
4.9846
4.98348
5.04477
3149.83
-522.848
-210.493
-47.2535
-6.89904
2.87858
6.12344
7.7928
8.9852
10.001
10.9333
11.8106
12.6401
13.4222
14.1556
14.8385
15.4694
16.0469
16.57
17.0383
17.4514
17.8097
18.1135
18.3637
18.5614
18.7077
18.8044
18.8531
18.8557
18.8143
18.7311
18.6085
18.4488
18.2546
18.0286
17.7732
17.4911
17.1851
16.8578
16.5118
16.1496
15.7739
15.387
14.9913
14.5892
14.1827
13.774
13.3649
12.9572
12.5527
12.1529
11.7591
11.3726
10.9947
10.6261
10.2679
9.92084
9.58542
9.26222
8.95162
8.65391
8.3693
8.0979
7.83972
7.59471
7.36276
7.14368
6.93724
6.74314
6.56107
6.39066
6.23152
6.08324
5.94539
5.81752
5.69918
5.5899
5.48924
5.39674
5.31195
5.23444
5.16376
5.09952
5.04131
4.98875
4.94148
4.89916
4.86147
4.82811
4.7988
4.77329
4.75135
4.73276
4.71735
4.70495
4.69538
4.6883
4.68303
4.682
4.73807
3149.83
-522.858
-210.509
-47.2753
-6.92709
2.84431
6.08297
7.74614
8.93237
9.94197
10.8682
11.7394
12.5628
13.3388
14.0662
14.7432
15.3682
15.9398
16.4571
16.9195
17.327
17.6796
17.9778
18.2225
18.4147
18.5557
18.6471
18.6906
18.688
18.6416
18.5535
18.4261
18.2617
18.0629
17.8323
17.5725
17.2862
16.9761
16.6447
16.2948
15.9288
15.5494
15.159
14.7599
14.3544
13.9448
13.533
13.121
12.7105
12.3033
11.9009
11.5047
11.1159
10.7357
10.365
10.0048
9.6558
9.31858
8.99367
8.68145
8.38223
8.09619
7.82343
7.56399
7.31779
7.08473
6.86461
6.65719
6.46219
6.27928
6.10808
5.94821
5.79926
5.66078
5.53233
5.41346
5.30369
5.20258
5.10967
5.0245
4.94664
4.87565
4.81113
4.75266
4.69987
4.6524
4.60991
4.57206
4.53856
4.50914
4.48353
4.46151
4.44287
4.42741
4.41499
4.40541
4.39836
4.39323
4.39225
4.44348
3149.83
-522.867
-210.524
-47.2965
-6.95439
2.81096
6.04359
7.70074
8.88097
9.8846
10.8049
11.6702
12.4877
13.2579
13.9794
14.6507
15.2699
15.8358
16.3475
16.8044
17.2063
17.5535
17.8463
18.0857
18.2727
18.4086
18.4949
18.5334
18.526
18.4748
18.382
18.25
18.0811
17.8779
17.6431
17.3791
17.0888
16.7747
16.4395
16.0858
15.7163
15.3334
14.9396
14.5373
14.1288
13.7161
13.3015
12.8867
12.4736
12.0638
11.659
11.2605
10.8695
10.4872
10.1145
9.75243
9.40162
9.0627
8.73618
8.42244
8.12179
7.8344
7.56037
7.29974
7.05243
6.81831
6.59721
6.38888
6.19302
6.00931
5.83737
5.67681
5.52722
5.38815
5.25915
5.13976
5.02953
4.92799
4.83468
4.74915
4.67095
4.59966
4.53486
4.47615
4.42313
4.37546
4.33278
4.29478
4.26114
4.23159
4.20588
4.18377
4.16506
4.14955
4.13709
4.12749
4.12045
4.11543
4.11447
4.16124
3149.82
-522.876
-210.539
-47.3171
-6.98088
2.77861
6.00539
7.65671
8.83113
9.82898
10.7435
11.6031
12.4149
13.1794
13.8954
14.5611
15.1748
15.7352
16.2415
16.6931
17.0897
17.4317
17.7194
17.9537
18.1357
18.2667
18.3482
18.3819
18.3699
18.3141
18.2169
18.0805
17.9074
17.7
17.4611
17.1933
16.8991
16.5812
16.2424
15.8853
15.5124
15.1262
14.7293
14.3239
13.9125
13.497
13.0796
12.6622
12.2466
11.8345
11.4274
11.0267
10.6336
10.2494
9.87485
9.51098
9.15848
8.81796
8.48993
8.17477
7.87277
7.58411
7.3089
7.04714
6.79878
6.56368
6.34165
6.13245
5.93579
5.75132
5.57868
5.41747
5.26727
5.12763
4.99811
4.87824
4.76756
4.66561
4.57192
4.48604
4.40752
4.33594
4.27087
4.21191
4.15867
4.1108
4.06794
4.02977
3.99599
3.96631
3.94049
3.91829
3.89949
3.88392
3.8714
3.86176
3.85473
3.84979
3.84883
3.89147
3149.82
-522.884
-210.553
-47.3371
-7.00649
2.74733
5.96846
7.61415
8.78297
9.77524
10.6842
11.5383
12.3446
13.1037
13.8143
14.4746
15.0831
15.6383
16.1394
16.5858
16.9774
17.3144
17.5972
17.8267
18.0039
18.1302
18.2071
18.2364
18.2199
18.1599
18.0584
17.9178
17.7407
17.5294
17.2867
17.0151
16.7173
16.396
16.0538
15.6933
15.3172
14.928
14.5281
14.1199
13.7056
13.2875
12.8676
12.4478
12.0298
11.6155
11.2063
10.8035
10.4085
10.0224
9.64612
9.28058
8.9265
8.58449
8.25504
7.93855
7.63528
7.34543
7.0691
6.80629
6.55693
6.32091
6.09801
5.888
5.69057
5.50539
5.33209
5.17026
5.01948
4.87931
4.74929
4.62896
4.51786
4.41551
4.32145
4.23523
4.15641
4.08454
4.0192
3.96
3.90655
3.85847
3.81543
3.7771
3.74317
3.71336
3.68742
3.66511
3.64623
3.63058
3.618
3.60831
3.60126
3.59638
3.59539
3.63422
3149.82
-522.893
-210.567
-47.3563
-7.03118
2.71718
5.93287
7.57314
8.73657
9.72348
10.6271
11.4759
12.277
13.0309
13.7363
14.3915
14.9948
15.5451
16.0412
16.4828
16.8696
17.2018
17.4799
17.7048
17.8775
17.9994
18.0719
18.0969
18.0763
18.0121
17.9066
17.7622
17.5812
17.3663
17.1199
16.8448
16.5436
16.219
15.8736
15.51
15.1309
14.7388
14.3361
13.9252
13.5084
13.0878
12.6655
12.2434
11.8233
11.4069
10.9956
10.591
10.1941
9.80629
9.42839
9.06129
8.70573
8.36232
8.03155
7.7138
7.40935
7.11838
6.841
6.5772
6.32691
6.09002
5.8663
5.65552
5.45738
5.27153
5.0976
4.93519
4.78386
4.64318
4.51269
4.39192
4.28041
4.17768
4.08327
3.99673
3.9176
3.84545
3.77986
3.72042
3.66675
3.61848
3.57525
3.53675
3.50267
3.47273
3.44667
3.42425
3.40527
3.38953
3.37687
3.36713
3.36005
3.3552
3.35417
3.38948
3149.82
-522.901
-210.58
-47.3748
-7.05491
2.68821
5.89867
7.53374
8.69199
9.67376
10.5723
11.416
12.212
12.961
13.6614
14.3117
14.9103
15.4557
15.9472
16.3841
16.7663
17.094
17.3677
17.5882
17.7566
17.8742
17.9427
17.9636
17.939
17.871
17.7618
17.6136
17.4291
17.2107
16.9609
16.6825
16.3781
16.0504
15.702
15.3355
14.9536
14.5588
14.1535
13.7401
13.3208
12.8979
12.4734
12.0492
11.627
11.2086
10.7955
10.3891
9.99055
9.60108
9.22164
8.85309
8.49615
8.15142
7.81941
7.50049
7.19493
6.90292
6.62455
6.35982
6.10867
5.87095
5.64647
5.43497
5.23614
5.04966
4.87514
4.71217
4.56033
4.41917
4.28823
4.16704
4.05514
3.95205
3.8573
3.77044
3.69103
3.61861
3.55277
3.4931
3.43921
3.39074
3.34734
3.30867
3.27444
3.24435
3.21816
3.19563
3.17654
3.16071
3.14796
3.13815
3.13102
3.12619
3.1251
3.15717
3149.81
-522.908
-210.593
-47.3925
-7.07766
2.66043
5.86589
7.49599
8.64929
9.62613
10.5198
11.3586
12.1499
12.894
13.5898
14.2355
14.8294
15.3703
15.8572
16.2897
16.6676
16.991
17.2605
17.4769
17.6412
17.7549
17.8194
17.8366
17.8083
17.7366
17.6238
17.4722
17.2843
17.0626
16.8097
16.5282
16.2208
15.8901
15.5389
15.1698
14.7852
14.3879
13.9801
13.5644
13.1429
12.7178
12.2912
11.865
11.4409
11.0207
10.6059
10.1978
9.79766
9.40668
9.02581
8.65589
8.29766
7.95171
7.61854
7.29852
6.99193
6.69894
6.41965
6.15405
5.90208
5.66359
5.43839
5.22621
5.02675
4.83967
4.66459
4.5011
4.34877
4.20715
4.07578
3.95419
3.84192
3.73848
3.64341
3.55625
3.47655
3.40387
3.33779
3.27789
3.2238
3.17513
3.13154
3.09271
3.05832
3.02809
3.00177
2.97911
2.95991
2.94398
2.93114
2.92124
2.91406
2.90923
2.90806
2.93715
3149.81
-522.915
-210.605
-47.4094
-7.09941
2.63388
5.83456
7.4599
8.60848
9.58063
10.4696
11.3039
12.0905
12.8302
13.5215
14.1627
14.7522
15.2888
15.7715
16.1998
16.5736
16.8929
17.1585
17.3709
17.5315
17.6414
17.7023
17.7158
17.684
17.6089
17.4928
17.338
17.1469
16.9221
16.6662
16.3818
16.0716
15.7383
15.3844
15.0127
14.6258
14.226
13.816
13.3981
12.9745
12.5474
12.1189
11.6908
11.2649
10.843
10.4266
10.0169
9.61534
9.22296
8.84076
8.46957
8.11014
7.76305
7.42879
7.10775
6.80019
6.50629
6.22614
5.95973
5.70699
5.46778
5.24189
5.02908
4.82902
4.64138
4.46577
4.30179
4.14899
4.00694
3.87516
3.7532
3.64056
3.53679
3.44141
3.35396
3.27399
3.20106
3.13474
3.07462
3.02032
2.97146
2.92769
2.88868
2.85414
2.82376
2.7973
2.77452
2.7552
2.73916
2.72622
2.71624
2.70898
2.70413
2.70288
2.72923
3149.81
-522.922
-210.616
-47.4256
-7.12015
2.60856
5.80468
7.4255
8.56957
9.53726
10.4218
11.2517
12.034
12.7693
13.4564
14.0934
14.6788
15.2113
15.69
16.1144
16.4842
16.7998
17.0615
17.2703
17.4273
17.5337
17.5911
17.6013
17.5662
17.4879
17.3687
17.2108
17.0168
16.7891
16.5304
16.2434
15.9305
15.5947
15.2384
14.8643
14.4751
14.0732
13.661
13.2411
12.8155
12.3866
11.9562
11.5264
11.0989
10.6754
10.2575
9.84637
9.44344
9.04975
8.66631
8.29394
7.93339
7.58523
7.24997
6.92798
6.61952
6.32476
6.0438
5.77663
5.52317
5.28329
5.05677
4.84335
4.64273
4.45456
4.27845
4.114
3.96077
3.8183
3.68614
3.56381
3.45084
3.34675
3.25107
3.16334
3.0831
3.00992
2.94337
2.88304
2.82853
2.77948
2.73553
2.69636
2.66165
2.63113
2.60453
2.58162
2.56218
2.54602
2.53298
2.52289
2.51556
2.51068
2.50933
2.53317
3149.81
-522.929
-210.627
-47.4409
-7.1399
2.58446
5.77625
7.39276
8.53256
9.496
10.3764
11.202
11.9802
12.7115
13.3945
14.0276
14.6091
15.1377
15.6126
16.0333
16.3995
16.7114
16.9697
17.175
17.3286
17.4317
17.4859
17.4929
17.4547
17.3735
17.2513
17.0906
16.8938
16.6635
16.4022
16.1127
15.7974
15.4592
15.1006
14.7244
14.333
13.9291
13.515
13.0932
12.6658
12.2351
11.8031
11.3717
10.9427
10.5177
10.0983
9.68593
9.28173
8.88683
8.50224
8.12878
7.76718
7.41804
7.08184
6.75896
6.44966
6.15411
5.87239
5.60451
5.35038
5.10987
4.88275
4.66877
4.46762
4.27895
4.10237
3.93748
3.78383
3.64097
3.50844
3.38577
3.27247
3.16807
3.07211
2.9841
2.90362
2.8302
2.76342
2.70287
2.64816
2.59892
2.5548
2.51546
2.48059
2.44992
2.42318
2.40014
2.38057
2.36429
2.35114
2.34095
2.33353
2.32861
2.32715
2.34868
3149.8
-522.935
-210.638
-47.4555
-7.15866
2.56157
5.74926
7.36168
8.49743
9.45685
10.3332
11.155
11.9293
12.6567
13.3359
13.9652
14.543
15.0681
15.5394
15.9565
16.3192
16.6278
16.8828
17.0849
17.2353
17.3353
17.3865
17.3906
17.3496
17.2655
17.1406
16.9773
16.778
16.5452
16.2815
15.9896
15.6721
15.3317
14.971
14.5928
14.1995
13.7936
13.3777
12.9541
12.5251
12.0928
11.6592
11.2264
10.7959
10.3697
9.94899
9.53534
9.12996
8.73395
8.34828
7.97381
7.61125
7.26119
6.92412
6.60042
6.29033
5.99404
5.71163
5.44308
5.18832
4.94721
4.71954
4.50503
4.30338
4.11424
3.93722
3.77191
3.61786
3.47463
3.34175
3.21875
3.10514
3.00045
2.90421
2.81595
2.73521
2.66156
2.59456
2.53381
2.47891
2.42948
2.38518
2.34567
2.31065
2.27983
2.25294
2.22976
2.21006
2.19367
2.1804
2.1701
2.16259
2.15761
2.15604
2.17545
3149.8
-522.941
-210.648
-47.4694
-7.17644
2.53988
5.72367
7.33223
8.46414
9.41976
10.2924
11.1104
11.881
12.6048
13.2804
13.9062
14.4806
15.0022
15.4702
15.884
16.2435
16.5489
16.8008
16.9999
17.1473
17.2444
17.2928
17.2942
17.2505
17.1639
17.0365
16.8707
16.669
16.4339
16.168
15.8739
15.5544
15.212
14.8494
14.4692
14.0741
13.6665
13.249
12.8238
12.3932
11.9594
11.5245
11.0902
10.6585
10.231
9.80911
9.39433
8.98786
8.59081
8.20416
7.82875
7.46529
7.11439
6.77651
6.45204
6.14123
5.84425
5.56118
5.29201
5.03667
4.79501
4.5668
4.3518
4.14968
3.9601
3.78266
3.61695
3.46254
3.31896
3.18574
3.06242
2.94852
2.84355
2.74704
2.65853
2.57755
2.50368
2.43646
2.37551
2.32041
2.2708
2.22633
2.18665
2.15147
2.1205
2.09347
2.07015
2.05033
2.0338
2.02041
2.01001
2.0024
1.99735
1.99566
2.01314
3149.8
-522.947
-210.657
-47.4825
-7.19327
2.51934
5.69945
7.30436
8.43265
9.38468
10.2538
11.0683
11.8354
12.5558
13.2281
13.8505
14.4216
14.94
15.4049
15.8156
16.1721
16.4746
16.7235
16.9198
17.0645
17.159
17.2047
17.2036
17.1574
17.0684
16.9386
16.7706
16.5667
16.3295
16.0616
15.7655
15.444
15.0998
14.7354
14.3535
13.9568
13.5476
13.1285
12.7018
12.2699
11.8347
11.3984
10.9629
10.53
10.1013
9.6784
9.26258
8.85511
8.45711
8.06955
7.69327
7.32899
6.9773
6.63868
6.31349
6.00201
5.70439
5.42071
5.15097
4.89508
4.65289
4.4242
4.20873
4.00617
3.81617
3.63834
3.47226
3.31749
3.17357
3.04004
2.91642
2.80223
2.69699
2.60023
2.51147
2.43027
2.35617
2.28875
2.2276
2.17231
2.12253
2.07788
2.03804
2.0027
1.97158
1.94441
1.92095
1.90099
1.88434
1.87083
1.86031
1.8526
1.84747
1.84566
1.86136
3149.8
-522.952
-210.666
-47.4949
-7.20918
2.49994
5.67658
7.27803
8.40291
9.35156
10.2173
11.0285
11.7924
12.5095
13.1787
13.798
14.366
14.8815
15.3434
15.7512
16.1049
16.4047
16.6509
16.8446
16.9867
17.0787
17.122
17.1185
17.0701
16.9788
16.847
16.6768
16.4709
16.2318
15.9619
15.6641
15.3408
14.9949
14.6289
14.2454
13.8471
13.4365
13.016
12.588
12.1547
11.7183
11.2809
10.8442
10.4102
9.9805
9.55655
9.13977
8.73138
8.33251
7.94411
7.56703
7.20199
6.84958
6.51026
6.18442
5.87231
5.57409
5.28985
5.01957
4.76317
4.5205
4.29135
4.07544
3.87247
3.68208
3.50387
3.33743
3.18233
3.0381
2.90426
2.78036
2.66589
2.5604
2.46339
2.3744
2.29297
2.21866
2.15104
2.08969
2.03423
1.98426
1.93944
1.89944
1.86395
1.83268
1.80536
1.78177
1.76167
1.74489
1.73126
1.72062
1.7128
1.7076
1.70566
1.71974
3149.8
-522.957
-210.674
-47.5066
-7.2242
2.48162
5.65499
7.2532
8.37485
9.32033
10.1829
10.991
11.7518
12.466
13.1321
13.7486
14.3138
14.8264
15.2856
15.6907
16.0418
16.339
16.5828
16.774
16.9138
17.0034
17.0446
17.0389
16.9883
16.895
16.7612
16.5892
16.3814
16.1405
15.8689
15.5694
15.2445
14.897
14.5295
14.1446
13.745
13.333
12.9112
12.482
12.0475
11.61
11.1715
10.7338
10.2988
9.86808
9.44322
9.02555
8.61633
8.21665
7.82749
7.44968
7.08394
6.73085
6.3909
6.06445
5.75176
5.45299
5.16822
4.89744
4.64057
4.39745
4.16786
3.95155
3.74818
3.55742
3.37886
3.21209
3.05667
2.91213
2.77801
2.65383
2.53911
2.43336
2.33612
2.2469
2.16526
2.09074
2.02293
1.96139
1.90574
1.8556
1.81062
1.77046
1.73481
1.70339
1.67594
1.6522
1.63197
1.61506
1.60131
1.59055
1.58262
1.57733
1.57526
1.58787
3149.79
-522.962
-210.682
-47.5176
-7.23836
2.46435
5.63463
7.22979
8.34842
9.2909
10.1505
10.9557
11.7137
12.425
13.0884
13.7021
14.2646
14.7747
15.2313
15.634
15.9826
16.2774
16.5189
16.7079
16.8455
16.933
16.9721
16.9644
16.9119
16.8167
16.6811
16.5073
16.2979
16.0553
15.7822
15.4811
15.1548
14.8059
14.437
14.0509
13.6499
13.2368
12.8138
12.3835
11.9479
11.5094
11.0698
10.6312
10.1953
9.76374
9.33804
8.91958
8.50959
8.10918
7.71931
7.34083
6.97444
6.62075
6.28021
5.9532
5.63997
5.34069
5.05544
4.78419
4.52687
4.28333
4.05334
3.83664
3.63291
3.4418
3.26291
3.09582
2.94009
2.79527
2.66088
2.53643
2.42146
2.31548
2.218
2.12857
2.04672
1.972
1.904
1.84228
1.78645
1.73614
1.691
1.65068
1.61488
1.58331
1.55571
1.53184
1.51148
1.49444
1.48056
1.46968
1.46164
1.45626
1.45407
1.46533
3149.79
-522.966
-210.69
-47.528
-7.2517
2.44808
5.61546
7.20775
8.32354
9.26321
10.1201
10.9225
11.6778
12.3865
13.0473
13.6585
14.2185
14.7261
15.1804
15.5807
15.9271
16.2197
16.4591
16.646
16.7816
16.8672
16.9044
16.8948
16.8406
16.7437
16.6064
16.4311
16.2201
15.976
15.7015
15.399
15.0714
14.7212
14.3511
13.9638
13.5617
13.1475
12.7235
12.2921
11.8556
11.4161
10.9757
10.5362
10.0995
9.66713
9.24067
8.82148
8.41079
8.00971
7.6192
7.24011
6.87313
6.51887
6.1778
5.85027
5.53655
5.2368
4.95109
4.67941
4.42168
4.17774
3.94737
3.73031
3.52624
3.3348
3.15559
2.98821
2.83219
2.6871
2.55244
2.42775
2.31253
2.20632
2.10863
2.01898
1.93693
1.86202
1.79383
1.73193
1.67593
1.62546
1.58015
1.53968
1.50373
1.47202
1.44428
1.42027
1.39978
1.38261
1.3686
1.3576
1.34945
1.34398
1.34166
1.35169
3149.79
-522.971
-210.697
-47.5378
-7.26427
2.43277
5.59742
7.187
8.30012
9.23716
10.0914
10.8913
11.6441
12.3503
13.0087
13.6176
14.1753
14.6806
15.1327
15.5309
15.8752
16.1658
16.4032
16.5882
16.722
16.8058
16.8412
16.83
16.7742
16.6757
16.5369
16.3601
16.1478
15.9024
15.6265
15.3229
14.994
14.6427
14.2715
13.8831
13.48
13.0648
12.6399
12.2076
11.7702
11.3299
10.8887
10.4484
10.0109
9.57787
9.15072
8.73087
8.31956
7.91787
7.52678
7.14713
6.77962
6.42484
6.08327
5.75527
5.44109
5.14091
4.85478
4.5827
4.32458
4.08027
3.84955
3.63216
3.42776
3.23601
3.0565
2.88883
2.73255
2.58719
2.45228
2.32735
2.21191
2.10547
2.00756
1.91772
1.83547
1.76037
1.692
1.62993
1.57376
1.52312
1.47766
1.43704
1.40094
1.36909
1.34121
1.31707
1.29644
1.27915
1.26502
1.2539
1.24564
1.24007
1.23762
1.24653
3149.79
-522.975
-210.703
-47.547
-7.2761
2.41835
5.58044
7.16748
8.2781
9.21267
10.0645
10.862
11.6125
12.3164
12.9725
13.5792
14.1348
14.638
15.088
15.4843
15.8267
16.1154
16.351
16.5343
16.6663
16.7485
16.7824
16.7697
16.7124
16.6125
16.4724
16.2943
16.0806
15.834
15.557
15.2523
14.9224
14.57
14.1978
13.8085
13.4045
12.9884
12.5626
12.1295
11.6914
11.2503
10.8084
10.3674
9.9293
9.4956
9.06784
8.6474
8.23551
7.83328
7.44167
7.0615
6.69351
6.33826
5.99624
5.6678
5.3532
5.05261
4.7661
4.49365
4.23517
3.99052
3.75947
3.54176
3.33705
3.14501
2.96522
2.79728
2.64074
2.49513
2.35998
2.23482
2.11916
2.01251
1.9144
1.82436
1.74192
1.66664
1.59809
1.53584
1.47951
1.42872
1.3831
1.34233
1.30609
1.2741
1.24608
1.22181
1.20106
1.18364
1.16938
1.15815
1.14978
1.14412
1.14154
1.14943
3149.79
-522.978
-210.709
-47.5557
-7.28724
2.40477
5.56445
7.14912
8.25739
9.18965
10.0392
10.8345
11.5827
12.2845
12.9386
13.5432
14.0968
14.5981
15.0463
15.4407
15.7813
16.0684
16.3023
16.484
16.6145
16.6952
16.7276
16.7136
16.6549
16.5538
16.4125
16.2332
16.0184
15.7708
15.4927
15.187
14.8561
14.5028
14.1298
13.7396
13.3348
12.9179
12.4914
12.0576
11.6188
11.1771
10.7345
10.293
9.85422
9.41995
8.99165
8.57068
8.15829
7.75556
7.36347
6.98285
6.61441
6.25874
5.9163
5.58747
5.27249
4.97153
4.68465
4.41186
4.15305
3.90808
3.67672
3.4587
3.25371
3.06139
2.88134
2.71314
2.55635
2.4105
2.27513
2.14974
2.03387
1.92702
1.82871
1.73848
1.65585
1.5804
1.51168
1.44927
1.39278
1.34183
1.29606
1.25514
1.21876
1.18663
1.15848
1.13408
1.1132
1.09566
1.08129
1.06993
1.06145
1.0557
1.053
1.05997
3149.79
-522.982
-210.715
-47.5639
-7.29773
2.39199
5.54941
7.13184
8.2379
9.168
10.0154
10.8086
11.5548
12.2547
12.9068
13.5095
14.0612
14.5608
15.0072
15.4
15.739
16.0244
16.2569
16.4371
16.5662
16.6456
16.6767
16.6614
16.6016
16.4994
16.3569
16.1766
15.9609
15.7122
15.4333
15.1267
14.795
14.4409
14.0671
13.6762
13.2707
12.8531
12.426
11.9916
11.5521
11.1098
10.6667
10.2246
9.78535
9.35057
8.92179
8.50035
8.0875
7.68434
7.29182
6.91079
6.54195
6.18589
5.84308
5.51388
5.19855
4.89725
4.61004
4.33693
4.07781
3.83254
3.60089
3.38259
3.17734
2.98475
2.80445
2.63601
2.47898
2.3329
2.19731
2.07171
1.95563
1.84858
1.75008
1.65967
1.57687
1.50124
1.43235
1.36978
1.31314
1.26203
1.21612
1.17506
1.13854
1.10628
1.078
1.05347
1.03246
1.0148
1.00031
0.988841
0.980254
0.974404
0.971584
0.97772
3149.79
-522.985
-210.721
-47.5716
-7.30762
2.37995
5.53524
7.11557
8.21956
9.14763
9.99307
10.7843
11.5286
12.2266
12.8769
13.4779
14.0279
14.5258
14.9706
15.3619
15.6994
15.9835
16.2145
16.3934
16.5213
16.5995
16.6295
16.613
16.5522
16.4489
16.3055
16.1243
15.9077
15.6582
15.3785
15.0711
14.7387
14.3839
14.0094
13.6179
13.2118
12.7936
12.3659
11.9309
11.491
11.0482
10.6046
10.162
9.72232
9.2871
8.85789
8.43604
8.02279
7.61924
7.22634
6.84494
6.47575
6.11934
5.77619
5.44666
5.13101
4.82939
4.54188
4.26847
4.00907
3.76352
3.5316
3.31304
3.10752
2.91469
2.73415
2.56547
2.40822
2.26193
2.12612
2.00032
1.88405
1.77681
1.67812
1.58753
1.50456
1.42876
1.35971
1.29698
1.24018
1.18894
1.14288
1.10168
1.06503
1.03263
1.00422
0.979568
0.958446
0.940665
0.926058
0.914478
0.905785
0.899841
0.896904
0.902284
3149.79
-522.988
-210.726
-47.5789
-7.31694
2.36859
5.52187
7.10023
8.20229
9.12845
9.97203
10.7615
11.504
12.2002
12.8489
13.4482
13.9967
14.4931
14.9365
15.3263
15.6625
15.9452
16.1751
16.3528
16.4795
16.5566
16.5856
16.5682
16.5064
16.4022
16.258
16.0759
15.8586
15.6084
15.3279
15.0199
14.6869
14.3315
13.9565
13.5644
13.1577
12.7391
12.3109
11.8755
11.4351
10.9919
10.5478
10.1049
9.66479
9.2292
8.79961
8.37741
7.96381
7.55991
7.16668
6.78495
6.41544
6.05871
5.71526
5.38543
5.06948
4.76758
4.4798
4.20611
3.94644
3.70063
3.46845
3.24965
3.04389
2.85083
2.67006
2.50116
2.34369
2.19719
2.06118
1.93519
1.81872
1.71129
1.61243
1.52166
1.43853
1.36257
1.29336
1.23048
1.17353
1.12214
1.07595
1.03461
0.997826
0.965301
0.93677
0.911993
0.890752
0.872857
0.858138
0.846449
0.837653
0.831617
0.828568
0.833263
3149.78
-522.991
-210.731
-47.5858
-7.32575
2.35787
5.50926
7.08576
8.18599
9.11036
9.9522
10.7399
11.4808
12.1755
12.8225
13.4204
13.9674
14.4624
14.9045
15.293
15.628
15.9096
16.1383
16.3149
16.4407
16.5168
16.5448
16.5266
16.464
16.359
16.214
16.0313
15.8133
15.5625
15.2815
14.9729
14.6393
14.2834
13.9079
13.5154
13.1083
12.6893
12.2607
11.8249
11.3841
10.9405
10.4961
10.0528
9.61242
9.17651
8.74662
8.3241
7.9102
7.506
7.11248
6.73047
6.36067
6.00366
5.65993
5.32983
5.01362
4.71146
4.42342
4.14948
3.88956
3.64351
3.41109
3.19206
2.98607
2.79279
2.6118
2.44269
2.28502
2.13832
2.00211
1.87593
1.75928
1.65167
1.55264
1.4617
1.3784
1.30228
1.23292
1.16989
1.1128
1.06127
1.01494
0.973471
0.936558
0.903908
0.875256
0.850361
0.829006
0.810998
0.796171
0.784377
0.775481
0.769355
0.766198
0.770274
3149.78
-522.994
-210.736
-47.5923
-7.33408
2.34773
5.49734
7.07208
8.17059
9.09329
9.93349
10.7196
11.459
12.1521
12.7978
13.3942
13.9399
14.4337
14.8745
15.2619
15.5957
15.8763
16.104
16.2797
16.4045
16.4798
16.507
16.488
16.4247
16.3191
16.1735
15.9902
15.7716
15.5203
15.2388
14.9297
14.5957
14.2394
13.8635
13.4706
13.0632
12.6438
12.2149
11.7788
11.3377
10.8938
10.4492
10.0056
9.56491
9.12873
8.69857
8.27579
7.86163
7.45718
7.06341
6.68114
6.31109
5.95384
5.60987
5.27953
4.96307
4.66067
4.37239
4.09822
3.83808
3.59179
3.35916
3.1399
2.93371
2.74021
2.55902
2.38971
2.23184
2.08494
1.94855
1.82218
1.70535
1.59758
1.49837
1.40727
1.32381
1.24754
1.17803
1.11486
1.05763
1.00596
0.959492
0.917897
0.880859
0.848087
0.819318
0.794308
0.772841
0.754726
0.739794
0.727898
0.718906
0.712692
0.709432
0.712951
3149.78
-522.997
-210.74
-47.5984
-7.34197
2.33813
5.48605
7.05913
8.15603
9.07714
9.9158
10.7005
11.4384
12.1301
12.7744
13.3696
13.9141
14.4067
14.8464
15.2327
15.5656
15.8451
16.0719
16.2468
16.3709
16.4454
16.4719
16.4523
16.3884
16.2822
16.1361
15.9523
15.7332
15.4815
15.1996
14.8901
14.5558
14.1992
13.823
13.4298
13.0221
12.6025
12.1733
11.7369
11.2956
10.8515
10.4066
9.96284
9.52193
9.08554
8.65516
8.23217
7.81779
7.41313
7.01914
6.63666
6.26639
5.90893
5.56473
5.23417
4.9175
4.61489
4.32639
4.05201
3.79165
3.54516
3.31231
3.09285
2.88645
2.69275
2.51136
2.34186
2.1838
2.03672
1.90015
1.77361
1.6566
1.54866
1.44929
1.35803
1.27442
1.198
1.12834
1.06502
1.00766
0.955854
0.90926
0.86754
0.83038
0.797491
0.768607
0.743486
0.721912
0.703692
0.688658
0.676664
0.667579
0.661281
0.657922
0.66094
3149.78
-522.999
-210.744
-47.6043
-7.34946
2.32901
5.47533
7.04685
8.14221
9.06183
9.89905
10.6823
11.4189
12.1093
12.7524
13.3464
13.8898
14.3813
14.8199
15.2053
15.5373
15.816
16.0421
16.2162
16.3395
16.4134
16.4394
16.4192
16.3547
16.2481
16.1015
15.9173
15.6979
15.4458
15.1636
14.8539
14.5193
14.1625
13.7861
13.3926
12.9847
12.5649
12.1356
11.699
11.2576
10.8133
10.3682
9.92427
9.4832
9.04663
8.61609
8.19293
7.77838
7.37353
6.97937
6.5967
6.22625
5.8686
5.52421
5.19346
4.8766
4.57379
4.2851
4.01051
3.74996
3.50327
3.27023
3.05057
2.84398
2.65009
2.46852
2.29883
2.14059
1.99333
1.85658
1.72987
1.6127
1.50459
1.40507
1.31365
1.22988
1.15332
1.08352
1.02007
0.962563
0.910631
0.863911
0.822069
0.784791
0.751787
0.722792
0.697563
0.675885
0.657565
0.642433
0.630346
0.621171
0.614792
0.61134
0.613907
3149.78
-523.002
-210.748
-47.6098
-7.35659
2.32034
5.46514
7.03518
8.12909
9.0473
9.88315
10.6651
11.4004
12.0896
12.7316
13.3245
13.8668
14.3573
14.7951
15.1796
15.5108
15.7888
16.0141
16.1876
16.3103
16.3837
16.4091
16.3885
16.3236
16.2166
16.0697
15.8852
15.6655
15.4132
15.1307
14.8208
14.486
14.129
13.7525
13.3589
12.9509
12.5309
12.1015
11.6648
11.2232
10.7789
10.3337
9.88962
9.44843
9.01174
8.58107
8.15778
7.74309
7.33811
6.9438
6.56098
6.19037
5.83256
5.48801
5.15709
4.84006
4.53707
4.2482
3.97344
3.7127
3.46583
3.23261
3.01277
2.80599
2.61192
2.43017
2.2603
2.10189
1.95446
1.81754
1.69066
1.57333
1.46506
1.36538
1.27381
1.1899
1.11319
1.04325
0.979666
0.922033
0.869974
0.823132
0.781171
0.743778
0.710663
0.68156
0.656228
0.634449
0.616032
0.600807
0.588629
0.57937
0.572913
0.569374
0.571536
3149.78
-523.004
-210.752
-47.6151
-7.36339
2.31207
5.45543
7.02405
8.11658
9.03346
9.86802
10.6487
11.3828
12.0709
12.7118
13.3037
13.8451
14.3347
14.7717
15.1554
15.4859
15.7632
15.9879
16.1609
16.2831
16.356
16.381
16.36
16.2948
16.1875
16.0404
15.8556
15.6358
15.3832
15.1007
14.7906
14.4557
14.0987
13.722
13.3283
12.9203
12.5003
12.0708
11.6341
11.1924
10.748
10.3028
9.85862
9.41736
8.9806
8.54984
8.12646
7.71168
7.30659
6.91216
6.52923
6.15849
5.80054
5.45585
5.12478
4.8076
4.50445
4.21542
3.94049
3.67959
3.43255
3.19915
2.97914
2.7722
2.57795
2.39603
2.22599
2.06741
1.91981
1.78273
1.65569
1.5382
1.42978
1.32994
1.23823
1.15418
1.07733
1.00725
0.943533
0.885772
0.83359
0.786629
0.744552
0.707047
0.673825
0.644618
0.619186
0.59731
0.5788
0.563485
0.551222
0.541882
0.535351
0.531729
0.533531
3149.78
-523.006
-210.755
-47.6202
-7.36991
2.30415
5.44614
7.01341
8.10464
9.02025
9.85358
10.6331
11.3661
12.0532
12.693
13.284
13.8245
14.3133
14.7495
15.1326
15.4624
15.7392
15.9634
16.1358
16.2577
16.3302
16.3549
16.3336
16.2681
16.1607
16.0133
15.8284
15.6084
15.3558
15.0732
14.7631
14.4282
14.0711
13.6944
13.3008
12.8927
12.4727
12.0432
11.6065
11.1649
10.7204
10.2752
9.83103
9.38975
8.95295
8.52216
8.09872
7.68388
7.27872
6.88421
6.50118
6.13034
5.77228
5.42747
5.09628
4.77896
4.47567
4.1865
3.91142
3.65036
3.40316
3.16961
2.94943
2.74232
2.54792
2.36582
2.19563
2.03688
1.88912
1.75188
1.62468
1.50704
1.39847
1.29849
1.20663
1.12243
1.04545
0.975241
0.911394
0.853508
0.801206
0.754128
0.711939
0.674326
0.640999
0.611692
0.586163
0.564195
0.545595
0.530195
0.51785
0.508433
0.501833
0.498134
0.499614
3149.78
-523.008
-210.759
-47.6251
-7.37624
2.29651
5.43721
7.00321
8.0932
9.0076
9.83978
10.6182
11.3501
12.0362
12.6751
13.2652
13.8049
14.293
14.7285
15.111
15.4403
15.7165
15.9403
16.1124
16.2339
16.3061
16.3306
16.309
16.2434
16.1358
15.9884
15.8034
15.5834
15.3308
15.0481
14.7381
14.4032
14.0461
13.6695
13.2759
12.8679
12.448
12.0186
11.5819
11.1403
10.696
10.2507
9.80663
9.36536
8.92858
8.49778
8.07433
7.65945
7.25425
6.85969
6.4766
6.10569
5.74754
5.40264
5.07133
4.7539
4.45049
4.16118
3.88597
3.62477
3.37742
3.14372
2.92339
2.71613
2.52156
2.33931
2.16896
2.01005
1.86214
1.72475
1.59739
1.4796
1.37088
1.27076
1.17876
1.09442
1.01731
0.946968
0.882995
0.824988
0.772568
0.725376
0.683078
0.64536
0.611932
0.582528
0.556906
0.534848
0.516164
0.500683
0.48826
0.478771
0.472105
0.468335
0.46953
3149.78
-523.011
-210.762
-47.6302
-7.3826
2.28899
5.42856
6.99339
8.0822
8.99546
9.82654
10.6039
11.3348
12.02
12.658
13.2473
13.7863
14.2737
14.7086
15.0906
15.4193
15.6952
15.9186
16.0903
16.2116
16.2836
16.3079
16.2862
16.2205
16.1129
15.9654
15.7804
15.5604
15.3079
15.0253
14.7153
14.3806
14.0236
13.6471
13.2537
12.8458
12.426
11.9967
11.5601
11.1187
10.6744
10.2293
9.78521
9.344
8.90727
8.4765
8.05307
7.6382
7.23299
6.8384
6.45527
6.08431
5.7261
5.38112
5.04973
4.73219
4.42868
4.13926
3.86392
3.60259
3.35511
3.12126
2.90079
2.69338
2.49866
2.31626
2.14575
1.9867
1.83863
1.70109
1.57359
1.45565
1.34678
1.24652
1.15438
1.06991
0.992665
0.9222
0.858104
0.799978
0.747443
0.700142
0.657737
0.619917
0.586391
0.556893
0.531182
0.509039
0.490273
0.474715
0.46222
0.452663
0.445935
0.4421
0.443042
3149.78
-523.013
-210.767
-47.636
-7.38965
2.28112
5.41994
6.98384
8.07159
8.98377
9.81381
10.5902
11.3202
12.0044
12.6416
13.2302
13.7685
14.2553
14.6896
15.0711
15.3995
15.675
15.8981
16.0696
16.1906
16.2625
16.2867
16.265
16.1993
16.0916
15.9442
15.7593
15.5394
15.287
15.0046
14.6947
14.3601
14.0034
13.6271
13.2338
12.8261
12.4065
11.9773
11.541
11.0996
10.6555
10.2105
9.76658
9.32547
8.88882
8.45813
8.03475
7.61991
7.21472
6.82014
6.437
6.066
5.70775
5.36272
5.03126
4.71364
4.41004
4.12051
3.84507
3.58362
3.33601
3.10203
2.88143
2.67387
2.47901
2.29647
2.12581
1.96661
1.81839
1.6807
1.55306
1.43497
1.32597
1.22557
1.13329
1.04869
0.971316
0.900728
0.836511
0.778269
0.725622
0.678213
0.635705
0.597786
0.564165
0.534577
0.50878
0.486556
0.467712
0.452081
0.439518
0.429897
0.423113
0.419217
0.419937
3149.78
-523.018
-210.773
-47.6443
-7.39936
2.27141
5.41056
6.97424
8.06127
8.97251
9.80157
10.577
11.3061
11.9895
12.6259
13.2138
13.7514
14.2377
14.6716
15.0526
15.3806
15.6558
15.8787
16.0501
16.171
16.2428
16.2669
16.2452
16.1796
16.072
15.9247
15.74
15.5202
15.268
14.9858
14.6762
14.3418
13.9852
13.6092
13.2161
12.8087
12.3893
11.9604
11.5242
11.0831
10.6391
10.1943
9.75057
9.3096
8.87308
8.44248
8.01919
7.60442
7.19928
6.80473
6.4216
6.0506
5.69233
5.34725
5.01574
4.69807
4.39438
4.10477
3.82922
3.56766
3.31994
3.08584
2.86511
2.65742
2.46243
2.27974
2.10894
1.94959
1.80124
1.6634
1.53562
1.41739
1.30825
1.20771
1.11531
1.03058
0.953071
0.882361
0.818026
0.75967
0.706914
0.659399
0.616791
0.578776
0.545064
0.515389
0.489509
0.467208
0.448291
0.432591
0.419963
0.410283
0.403446
0.399497
0.400023
3149.77
-523.031
-210.784
-47.6592
-7.4166
2.25565
5.39786
6.96342
8.05082
8.9616
9.78987
10.5644
11.2927
11.9752
12.611
13.1981
13.7352
14.2209
14.6544
15.035
15.3628
15.6377
15.8604
16.0317
16.1525
16.2243
16.2485
16.2269
16.1613
16.0539
15.9067
15.7222
15.5027
15.2507
14.9688
14.6594
14.3253
13.9691
13.5933
13.2006
12.7934
12.3743
11.9457
11.5098
11.0689
10.6252
10.1806
9.73703
9.29624
8.85987
8.42942
8.00624
7.59157
7.1865
6.79201
6.40891
6.03793
5.67966
5.33457
5.00302
4.6853
4.38155
4.09186
3.81623
3.55457
3.30674
3.07253
2.85167
2.64386
2.44873
2.26591
2.09498
1.93549
1.78699
1.64902
1.52109
1.40273
1.29345
1.19278
1.10025
1.01539
0.937762
0.866931
0.802481
0.744014
0.69115
0.643534
0.600828
0.562719
0.528919
0.49916
0.473202
0.450826
0.43184
0.416076
0.403388
0.393654
0.386769
0.38277
0.383129
3149.72
-523.094
-210.818
-47.687
-7.44995
2.22468
5.37511
6.94754
8.03845
8.95036
9.7786
10.5527
11.2802
11.9621
12.5971
13.1837
13.7202
14.2054
14.6384
15.0187
15.3462
15.6209
15.8434
16.0146
16.1354
16.2071
16.2314
16.2099
16.1445
16.0372
15.8903
15.706
15.4868
15.2351
14.9534
14.6444
14.3107
13.9548
13.5794
13.187
12.7802
12.3614
11.9331
11.4975
11.0569
10.6135
10.1691
9.72581
9.28524
8.84906
8.41878
7.99575
7.58121
7.17625
6.78183
6.3988
6.02786
5.6696
5.32451
4.99295
4.67519
4.37139
4.08164
3.80593
3.54419
3.29626
3.06195
2.84097
2.63304
2.43779
2.25484
2.08377
1.92415
1.77552
1.63741
1.50935
1.39085
1.28144
1.18063
1.08797
1.00299
0.92524
0.854292
0.789729
0.731152
0.678185
0.630468
0.587667
0.549469
0.515583
0.485744
0.459711
0.437264
0.418213
0.402388
0.389645
0.37986
0.372932
0.36889
0.369106
3149.45
-523.443
-210.976
-47.7418
-7.5053
2.16678
5.32983
6.91688
8.01763
8.93474
9.76538
10.5404
11.2682
11.9499
12.5846
13.1707
13.7067
14.1915
14.6241
15.004
15.3311
15.6056
15.8279
15.9989
16.1196
16.1913
16.2156
16.1942
16.1289
16.0218
15.8751
15.6911
15.4722
15.2208
14.9395
14.6309
14.2975
13.9421
13.567
13.175
12.7686
12.3502
11.9223
11.4871
11.0469
10.6037
10.1597
9.71667
9.27637
8.84043
8.41036
7.98752
7.57314
7.16831
6.77401
6.39107
6.02019
5.66198
5.31691
4.98536
4.66758
4.36376
4.07396
3.79819
3.53637
3.28836
3.05394
2.83287
2.62482
2.42945
2.24638
2.07519
1.91544
1.76667
1.62843
1.50024
1.38161
1.27207
1.17114
1.07835
0.993245
0.915377
0.844315
0.779641
0.720958
0.667889
0.620075
0.577182
0.538897
0.504929
0.475014
0.448908
0.426396
0.407283
0.391402
0.378608
0.368778
0.36181
0.35773
0.357825
3147.86
-525.42
-211.913
-47.9493
-7.5775
2.08757
5.25332
6.85514
7.97009
8.8972
9.73435
10.5136
11.2441
11.9276
12.5634
13.1501
13.6865
14.1715
14.6043
14.9844
15.3116
15.5863
15.8088
15.98
16.1009
16.173
16.1976
16.1765
16.1116
16.0049
15.8587
15.6751
15.4567
15.2059
14.9251
14.617
14.2842
13.9293
13.5548
13.1634
12.7575
12.3397
11.9122
11.4775
11.0378
10.5951
10.1515
9.70886
9.26892
8.83331
8.40354
7.98097
7.56683
7.16221
6.76809
6.38529
6.01454
5.65643
5.31143
4.97992
4.66217
4.35835
4.06854
3.79274
3.53087
3.2828
3.04831
2.82715
2.61901
2.42355
2.24036
2.06906
1.90919
1.76031
1.62194
1.49363
1.37487
1.26521
1.16416
1.07125
0.98603
0.908049
0.836877
0.772097
0.713312
0.660146
0.61224
0.569259
0.530891
0.496845
0.466857
0.440684
0.418109
0.39894
0.383007
0.370167
0.360296
0.353294
0.349183
0.349177
3139.93
-535.165
-217.05
-49.2733
-7.7602
2.04743
5.18448
6.76129
7.8644
8.78603
9.62091
10.3999
11.1315
11.8169
12.4553
13.0452
13.5855
14.0748
14.5125
14.8978
15.2306
15.5109
15.739
15.9157
16.0419
16.1188
16.1481
16.1312
16.0702
15.9671
15.8241
15.6434
15.4276
15.1791
14.9005
14.5943
14.2633
13.91
13.537
13.1469
12.7423
12.3256
11.8993
11.4656
11.0267
10.5849
10.1421
9.70017
9.2609
8.8259
8.39669
7.97462
7.56093
7.15672
6.76295
6.38047
6.00999
5.65211
5.30731
4.97596
4.65834
4.35461
4.06487
3.78912
3.52728
3.2792
3.0447
2.82351
2.61532
2.41979
2.23654
2.06515
1.90519
1.75622
1.61775
1.48933
1.37048
1.26071
1.15955
1.06654
0.981213
0.90313
0.831857
0.766981
0.708103
0.654847
0.606855
0.563794
0.525349
0.491233
0.461178
0.434944
0.412313
0.393092
0.377113
0.364233
0.354327
0.347296
0.343161
0.343083
3126.33
-565.723
-235.989
-54.9656
-8.43911
2.29314
5.36439
6.78312
7.76508
8.59314
9.35185
10.0701
10.7569
11.4129
12.036
12.6229
13.1701
13.6744
14.1331
14.5438
14.9047
15.2145
15.4725
15.6786
15.833
15.9363
15.9899
15.9951
15.9538
15.8681
15.7402
15.5727
15.3681
15.1292
14.8586
14.5593
14.2339
13.8854
13.5163
13.1296
12.7277
12.3134
11.889
11.457
11.0195
10.5789
10.1371
9.69609
9.25757
8.82323
8.39457
7.97298
7.55969
7.15581
6.76232
6.38007
6.00976
5.65202
5.30731
4.97603
4.65843
4.35471
4.06494
3.78914
3.52723
3.27908
3.04448
2.82318
2.61487
2.41921
2.23583
2.0643
1.9042
1.75508
1.61647
1.48791
1.36891
1.25899
1.1577
1.06455
0.979093
0.900884
0.82949
0.764497
0.705509
0.652149
0.604059
0.560906
0.522376
0.48818
0.458053
0.431752
0.409061
0.389788
0.373762
0.360841
0.350902
0.343846
0.339704
0.339642
3597.25
-477.645
-218.613
-49.3119
-5.903
3.50814
6.04055
7.32564
8.36135
9.31263
10.2065
11.0465
11.8315
12.5597
13.2296
13.8402
14.3911
14.8821
15.3135
15.6861
16.0008
16.2588
16.4615
16.6106
16.7076
16.7546
16.7535
16.7065
16.6156
16.4833
16.3119
16.1038
15.8615
15.5876
15.2846
14.9551
14.6018
14.2273
13.8341
13.4249
13.0021
12.5682
12.1255
11.6764
11.223
10.7674
10.3116
9.85751
9.40676
8.961
8.52168
8.09015
7.66759
7.25508
6.85355
6.46383
6.08659
5.72241
5.37174
5.03494
4.71224
4.4038
4.10968
3.82986
3.56425
3.31269
3.07496
2.85078
2.63984
2.44176
2.25616
2.08261
1.92066
1.76985
1.6297
1.49973
1.37945
1.26838
1.16603
1.07193
0.985607
0.906615
0.834515
0.768886
0.709325
0.65545
0.606899
0.563333
0.524436
0.489914
0.459499
0.432945
0.410033
0.390569
0.37438
0.361321
0.351268
0.344129
0.339994
0.340333
)
;

boundaryField
{
    xmin
    {
        type            calculated;
        value           uniform 0;
    }
    xmax
    {
        type            calculated;
        value           nonuniform List<scalar> 
100
(
3147.59
-417.938
-191.283
-43.1439
-5.15995
3.07593
5.29292
6.4185
7.32584
8.15931
8.94256
9.67861
10.3665
11.0047
11.5919
12.1272
12.6101
13.0407
13.4191
13.7461
14.0223
14.2489
14.4271
14.5583
14.644
14.6858
14.6856
14.6451
14.5663
14.4512
14.3018
14.1203
13.9088
13.6697
13.4051
13.1173
12.8086
12.4814
12.1378
11.7801
11.4105
11.0312
10.6442
10.2515
9.85511
9.45677
9.05824
8.66113
8.26697
7.87716
7.49296
7.11557
6.74601
6.38524
6.03408
5.69322
5.36329
5.04477
4.73807
4.44348
4.16124
3.89147
3.63422
3.38948
3.15717
2.93715
2.72923
2.53317
2.34868
2.17545
2.01314
1.86136
1.71974
1.58787
1.46533
1.35169
1.24653
1.14943
1.05997
0.97772
0.902284
0.833263
0.770274
0.712951
0.66094
0.613907
0.571536
0.533531
0.499614
0.46953
0.443042
0.419937
0.400023
0.383129
0.369106
0.357825
0.349177
0.343083
0.339642
0.340333
)
;
    }
    ymin
    {
        type            calculated;
        value           uniform 0;
    }
    ymax
    {
        type            calculated;
        value           nonuniform List<scalar> 
100
(
3597.25
-477.645
-218.613
-49.3119
-5.903
3.50814
6.04055
7.32564
8.36135
9.31263
10.2065
11.0465
11.8315
12.5597
13.2296
13.8402
14.3911
14.8821
15.3135
15.6861
16.0008
16.2588
16.4615
16.6106
16.7076
16.7546
16.7535
16.7065
16.6156
16.4833
16.3119
16.1038
15.8615
15.5876
15.2846
14.9551
14.6018
14.2273
13.8341
13.4249
13.0021
12.5682
12.1255
11.6764
11.223
10.7674
10.3116
9.85751
9.40676
8.961
8.52168
8.09015
7.66759
7.25508
6.85355
6.46383
6.08659
5.72241
5.37174
5.03494
4.71224
4.4038
4.10968
3.82986
3.56425
3.31269
3.07496
2.85078
2.63984
2.44176
2.25616
2.08261
1.92066
1.76985
1.6297
1.49973
1.37945
1.26838
1.16603
1.07193
0.985607
0.906615
0.834515
0.768886
0.709325
0.65545
0.606899
0.563333
0.524436
0.489914
0.459499
0.432945
0.410033
0.390569
0.37438
0.361321
0.351268
0.344129
0.339994
0.340333
)
;
    }
    frontAndBack
    {
        type            empty;
    }
}


// ************************************************************************* //
