/*--------------------------------*- C++ -*----------------------------------*\
  =========                 |
  \\      /  F ield         | OpenFOAM: The Open Source CFD Toolbox
   \\    /   O peration     | Website:  https://openfoam.org
    \\  /    A nd           | Version:  10
     \\/     M anipulation  |
\*---------------------------------------------------------------------------*/
FoamFile
{
    format      ascii;
    class       volScalarField;
    location    "1";
    object      ddt0(T);
}
// * * * * * * * * * * * * * * * * * * * * * * * * * * * * * * * * * * * * * //

dimensions      [0 0 -1 1 0 0 0];

internalField   nonuniform List<scalar> 
10000
(
8796.2
4813.16
4655.45
4717.21
4746.5
4756.44
4759.86
4761.28
4762.06
4762.58
4762.96
4763.24
4763.42
4763.52
4763.56
4763.53
4763.46
4763.36
4763.23
4763.08
4762.92
4762.75
4762.6
4762.44
4762.3
4762.17
4762.06
4761.95
4761.86
4761.79
4761.72
4761.67
4761.62
4761.58
4761.55
4761.53
4761.51
4761.5
4761.48
4761.47
4761.47
4761.46
4761.46
4761.46
4761.45
4761.45
4761.45
4761.45
4761.45
4761.45
4761.45
4761.45
4761.45
4761.45
4761.45
4761.45
4761.45
4761.45
4761.45
4761.45
4761.45
4761.45
4761.45
4761.45
4761.45
4761.45
4761.45
4761.45
4761.45
4761.45
4761.45
4761.45
4761.45
4761.45
4761.45
4761.45
4761.46
4761.46
4761.46
4761.46
4761.46
4761.46
4761.46
4761.46
4761.46
4761.46
4761.46
4761.45
4761.45
4761.44
4761.44
4761.42
4761.4
4761.35
4761.18
4760.58
4758.58
4756.05
4811.59
5765.29
5516.04
-547.133
-741.53
-572.867
-492.594
-464.186
-454.125
-449.885
-447.557
-445.994
-444.859
-444.045
-443.503
-443.199
-443.1
-443.173
-443.385
-443.705
-444.103
-444.552
-445.029
-445.513
-445.988
-446.443
-446.867
-447.256
-447.605
-447.914
-448.183
-448.415
-448.611
-448.775
-448.91
-449.021
-449.111
-449.183
-449.24
-449.284
-449.319
-449.345
-449.366
-449.381
-449.393
-449.401
-449.407
-449.412
-449.415
-449.418
-449.419
-449.421
-449.421
-449.422
-449.422
-449.423
-449.423
-449.423
-449.423
-449.423
-449.423
-449.423
-449.423
-449.423
-449.422
-449.422
-449.422
-449.422
-449.421
-449.42
-449.419
-449.418
-449.417
-449.416
-449.414
-449.412
-449.409
-449.407
-449.404
-449.401
-449.397
-449.394
-449.391
-449.388
-449.386
-449.386
-449.386
-449.389
-449.395
-449.404
-449.417
-449.436
-449.462
-449.498
-449.559
-449.692
-450.082
-451.389
-455.686
-467.043
-473.146
-258.576
5359.69
-755.036
-827.412
-581.626
-468.6
-427.782
-412.817
-406.253
-402.533
-399.996
-398.146
-396.818
-395.937
-395.447
-395.295
-395.426
-395.787
-396.325
-396.991
-397.74
-398.534
-399.339
-400.13
-400.885
-401.591
-402.236
-402.816
-403.329
-403.775
-404.159
-404.484
-404.756
-404.981
-405.165
-405.314
-405.433
-405.528
-405.601
-405.659
-405.703
-405.737
-405.762
-405.781
-405.795
-405.806
-405.813
-405.819
-405.823
-405.826
-405.828
-405.829
-405.83
-405.831
-405.831
-405.831
-405.832
-405.832
-405.832
-405.832
-405.832
-405.832
-405.831
-405.831
-405.831
-405.83
-405.829
-405.829
-405.827
-405.826
-405.824
-405.822
-405.82
-405.817
-405.813
-405.81
-405.805
-405.8
-405.795
-405.789
-405.784
-405.779
-405.774
-405.771
-405.769
-405.77
-405.774
-405.783
-405.797
-405.819
-405.848
-405.889
-405.945
-406.031
-406.195
-406.608
-407.842
-411.642
-422.246
-443.766
-443.087
5404.7
-620.431
-620.276
-336.045
-206.091
-158.138
-139.89
-131.506
-126.575
-123.149
-120.637
-118.836
-117.649
-117.001
-116.817
-117.023
-117.544
-118.308
-119.246
-120.299
-121.411
-122.537
-123.642
-124.696
-125.679
-126.578
-127.386
-128.099
-128.721
-129.255
-129.707
-130.085
-130.398
-130.654
-130.861
-131.026
-131.157
-131.26
-131.34
-131.401
-131.448
-131.483
-131.51
-131.529
-131.544
-131.554
-131.562
-131.567
-131.571
-131.574
-131.576
-131.577
-131.578
-131.579
-131.579
-131.58
-131.58
-131.58
-131.58
-131.58
-131.579
-131.579
-131.579
-131.578
-131.577
-131.577
-131.575
-131.574
-131.572
-131.57
-131.567
-131.563
-131.559
-131.555
-131.549
-131.543
-131.536
-131.529
-131.521
-131.513
-131.506
-131.499
-131.494
-131.491
-131.492
-131.497
-131.508
-131.527
-131.554
-131.593
-131.646
-131.717
-131.818
-131.983
-132.323
-133.184
-135.571
-141.935
-156.066
-175.058
5428.08
-553.643
-523.492
-222.914
-84.9674
-33.0608
-12.6134
-2.79475
3.18262
7.4041
10.5128
12.735
14.187
14.962
15.1525
14.8528
14.1576
13.1586
11.9416
10.5841
9.15413
7.70869
6.29395
4.94536
3.68847
2.53996
1.50888
0.598058
-0.194633
-0.874975
-1.45128
-1.93343
-2.33205
-2.65788
-2.92131
-3.13206
-3.29895
-3.42979
-3.53139
-3.60955
-3.66913
-3.71413
-3.74783
-3.77285
-3.79127
-3.80472
-3.81447
-3.82147
-3.82645
-3.82998
-3.83245
-3.83417
-3.83534
-3.83613
-3.83665
-3.83697
-3.83713
-3.83718
-3.83713
-3.83698
-3.83672
-3.83635
-3.83583
-3.83514
-3.83422
-3.83304
-3.83154
-3.82964
-3.82726
-3.82433
-3.82076
-3.81646
-3.81135
-3.80536
-3.79847
-3.79066
-3.782
-3.77261
-3.7627
-3.75262
-3.74284
-3.73399
-3.72689
-3.72254
-3.72219
-3.72726
-3.73943
-3.76057
-3.79276
-3.83836
-3.90022
-3.98262
-4.09409
-4.25611
-4.52821
-5.07847
-6.36323
-9.47021
-16.2186
-26.9679
5436.35
-529.434
-487.991
-180.615
-38.7767
15.4748
37.4961
48.4786
55.3583
60.2793
63.9106
66.4949
68.1635
69.0262
69.1931
68.7773
67.8923
66.648
65.1469
63.4822
61.7348
59.9731
58.2519
56.6134
55.0881
53.6955
52.4462
51.3432
50.3837
49.5606
48.8635
48.2805
47.7987
47.4049
47.0866
46.8319
46.6303
46.4723
46.3496
46.2552
46.1832
46.1289
46.0882
46.058
46.0357
46.0195
46.0077
45.9993
45.9932
45.989
45.986
45.9839
45.9825
45.9816
45.9809
45.9805
45.9803
45.9803
45.9803
45.9805
45.9808
45.9813
45.9819
45.9827
45.9838
45.9852
45.9869
45.9892
45.992
45.9955
45.9998
46.0049
46.011
46.0181
46.0264
46.0358
46.0462
46.0576
46.0697
46.0821
46.0943
46.1056
46.115
46.1214
46.1235
46.1195
46.1075
46.0855
46.0511
46.0016
45.9341
45.8446
45.7265
45.5658
45.3299
44.9418
44.2217
42.7702
39.8817
35.1095
5439.33
-520.545
-474.563
-164.029
-20.0154
35.812
59.0455
70.9938
78.645
84.166
88.2391
91.1189
92.9499
93.8571
93.967
93.4105
92.3184
90.8176
89.0267
87.0528
84.9892
82.9145
80.8917
78.9693
77.1818
75.5514
74.0899
72.8005
71.6795
70.7181
69.9044
69.2241
68.6619
68.2026
67.8314
67.5345
67.2995
67.1152
66.9722
66.8622
66.7783
66.715
66.6676
66.6324
66.6065
66.5876
66.5738
66.564
66.557
66.552
66.5485
66.5461
66.5445
66.5434
66.5426
66.5422
66.5419
66.5419
66.5419
66.5421
66.5425
66.543
66.5437
66.5446
66.5458
66.5474
66.5494
66.552
66.5552
66.5592
66.564
66.5699
66.5769
66.5851
66.5947
66.6055
66.6177
66.631
66.6452
66.6599
66.6746
66.6885
66.7005
66.7096
66.7141
66.7122
66.7019
66.6809
66.6466
66.5963
66.5268
66.4347
66.3146
66.157
65.9421
65.6295
65.144
64.3542
63.0519
60.9374
5440.65
-516.577
-468.353
-156.016
-10.5574
46.4501
70.6597
83.4119
91.7095
97.7282
102.158
105.262
107.198
108.103
108.121
107.398
106.081
104.313
102.227
99.9422
97.5646
95.1814
92.8632
90.6637
88.6213
86.7605
85.094
83.6247
82.3481
81.2539
80.3282
79.5544
78.9153
78.3932
77.9713
77.634
77.3671
77.1578
76.9954
76.8705
76.7753
76.7034
76.6495
76.6096
76.5802
76.5587
76.5431
76.5319
76.524
76.5183
76.5144
76.5116
76.5098
76.5085
76.5077
76.5072
76.5069
76.5068
76.5068
76.5071
76.5074
76.508
76.5087
76.5098
76.5111
76.5129
76.5151
76.518
76.5215
76.5259
76.5313
76.5378
76.5456
76.5548
76.5655
76.5777
76.5914
76.6065
76.6227
76.6398
76.657
76.6736
76.6887
76.7008
76.7084
76.7097
76.7025
76.6844
76.6526
76.6043
76.5366
76.446
76.3282
76.1766
75.9779
75.7055
75.313
74.7415
73.9741
72.9546
5441.43
-514.255
-464.622
-151.042
-4.50178
53.4389
78.442
91.8521
100.674
107.087
111.785
115.042
117.023
117.88
117.77
116.855
115.296
113.25
110.864
108.269
105.581
102.895
100.288
97.8201
95.5313
93.4485
91.5849
89.9431
88.5176
87.2965
86.2638
85.401
84.6885
84.1068
83.6368
83.2611
82.9638
82.7308
82.55
82.411
82.305
82.225
82.1651
82.1206
82.0879
82.064
82.0467
82.0342
82.0254
82.0191
82.0147
82.0116
82.0096
82.0081
82.0072
82.0066
82.0063
82.0062
82.0063
82.0065
82.0069
82.0075
82.0083
82.0094
82.0108
82.0127
82.0151
82.0182
82.022
82.0268
82.0326
82.0397
82.0482
82.0582
82.0699
82.0833
82.0984
82.1152
82.1334
82.1526
82.1724
82.1919
82.2101
82.2257
82.2371
82.2425
82.2396
82.226
82.199
82.1557
82.093
82.0079
81.8966
81.7542
81.5712
81.3269
80.9793
80.4683
79.8205
79.3163
5441.98
-512.611
-461.95
-147.426
-0.0381037
58.6456
84.2824
98.2128
107.44
114.145
119.025
122.361
124.33
125.093
124.822
123.689
121.873
119.54
116.851
113.948
110.954
107.972
105.086
102.358
99.8327
97.5371
95.4853
93.6792
92.112
90.7704
89.6363
88.6893
87.9075
87.2694
86.754
86.3421
86.0162
85.7609
85.5627
85.4104
85.2943
85.2066
85.141
85.0923
85.0564
85.0303
85.0113
84.9977
84.988
84.9811
84.9763
84.9729
84.9707
84.9691
84.9681
84.9674
84.9671
84.967
84.967
84.9672
84.9677
84.9683
84.9691
84.9703
84.9718
84.9738
84.9764
84.9796
84.9836
84.9887
84.9949
85.0024
85.0115
85.0222
85.0347
85.0491
85.0655
85.0838
85.1038
85.1251
85.1473
85.1697
85.1912
85.2105
85.2263
85.2365
85.239
85.2315
85.2112
85.1752
85.1208
85.0447
84.9439
84.8143
84.6486
84.4298
84.1149
83.6228
82.9539
82.7648
5442.4
-511.363
-459.912
-144.656
3.39092
62.6516
88.7745
103.095
112.613
119.51
124.49
127.837
129.737
130.364
129.899
128.528
126.44
123.815
120.823
117.614
114.32
111.052
107.896
104.919
102.167
99.6689
97.4383
95.4766
93.7757
92.3204
91.0909
90.0646
89.2177
88.5266
87.9687
87.5229
87.1703
86.894
86.6797
86.5149
86.3894
86.2946
86.2236
86.171
86.1322
86.1039
86.0834
86.0687
86.0582
86.0507
86.0455
86.0419
86.0394
86.0378
86.0367
86.036
86.0356
86.0354
86.0355
86.0357
86.0361
86.0368
86.0376
86.0388
86.0404
86.0425
86.0451
86.0485
86.0527
86.0579
86.0644
86.0723
86.0817
86.093
86.1062
86.1215
86.1389
86.1585
86.1801
86.2033
86.2279
86.253
86.2778
86.3011
86.3214
86.337
86.3458
86.3454
86.3333
86.3069
86.2632
86.1994
86.1125
85.9993
85.8539
85.6616
85.3789
84.9034
84.1825
84.2311
5442.72
-510.416
-458.367
-142.56
5.98162
65.668
92.1401
106.728
116.43
123.427
128.427
131.722
133.503
133.955
133.269
131.642
129.272
126.351
123.056
119.547
115.963
112.417
109.003
105.788
102.821
100.132
97.7325
95.6244
93.7979
92.2361
90.9174
89.8171
88.9095
88.1692
87.5716
87.0943
86.7168
86.4211
86.1917
86.0154
85.8811
85.7797
85.7038
85.6475
85.6061
85.5758
85.5539
85.5381
85.5269
85.519
85.5134
85.5095
85.5069
85.5051
85.5039
85.5031
85.5027
85.5025
85.5026
85.5028
85.5032
85.5039
85.5048
85.506
85.5076
85.5097
85.5124
85.5158
85.5201
85.5255
85.5321
85.5402
85.55
85.5616
85.5754
85.5913
85.6096
85.6302
85.6531
85.6781
85.7047
85.7324
85.7604
85.7876
85.8126
85.8339
85.8494
85.857
85.8543
85.8388
85.8078
85.7586
85.6886
85.5949
85.4727
85.3092
85.0613
84.6104
83.8473
84.0907
5442.95
-509.731
-457.251
-141.05
7.83583
67.81
94.5061
109.249
119.037
126.051
131.002
134.186
135.805
136.049
135.119
133.221
130.563
127.345
123.752
119.95
116.084
112.274
108.613
105.173
102.004
99.1341
96.577
94.3321
92.3885
90.7276
89.326
88.1571
87.1933
86.4074
85.7732
85.2668
84.8663
84.5528
84.3096
84.1226
83.9803
83.8728
83.7923
83.7327
83.6887
83.6566
83.6334
83.6167
83.6048
83.5964
83.5905
83.5864
83.5836
83.5817
83.5804
83.5796
83.5792
83.579
83.579
83.5792
83.5796
83.5803
83.5812
83.5824
83.584
83.5861
83.5888
83.5922
83.5966
83.602
83.6088
83.617
83.6269
83.6388
83.6528
83.6692
83.6881
83.7095
83.7335
83.7599
83.7883
83.8184
83.8493
83.8802
83.9099
83.9368
83.9592
83.9751
83.9824
83.9788
83.9617
83.9288
83.8777
83.8058
83.7091
83.5763
83.3657
82.9482
82.1662
82.5692
5443.1
-509.276
-456.513
-140.061
9.0366
69.1755
95.9837
110.783
120.57
127.527
132.367
135.393
136.812
136.821
135.629
133.451
130.502
126.989
123.105
119.02
114.885
110.822
106.928
103.277
99.9176
96.8798
94.1757
91.8039
89.7519
87.9995
86.5214
85.2893
84.2739
83.4461
82.7783
82.2452
81.8237
81.4938
81.2379
81.0413
80.8916
80.7785
80.6939
80.6312
80.585
80.5513
80.5268
80.5093
80.4968
80.4879
80.4817
80.4774
80.4745
80.4725
80.4711
80.4703
80.4698
80.4696
80.4696
80.4698
80.4702
80.4708
80.4717
80.4729
80.4745
80.4765
80.4792
80.4826
80.487
80.4924
80.4991
80.5073
80.5173
80.5292
80.5434
80.5601
80.5793
80.6013
80.626
80.6535
80.6834
80.7154
80.749
80.7832
80.8172
80.8495
80.8787
80.9029
80.9203
80.9288
80.9262
80.9103
80.879
80.8302
80.7605
80.6597
80.4877
80.1105
79.3343
79.864
5443.19
-509.021
-456.105
-139.526
9.66705
69.8635
96.6869
111.457
121.168
128.006
132.685
135.513
136.702
136.457
134.992
132.529
129.29
125.488
121.321
116.965
112.574
108.272
104.16
100.311
96.7751
93.5815
90.7417
88.2529
86.1013
84.2649
82.7169
81.427
80.3643
79.4983
78.8
78.2426
77.802
77.4572
77.1898
76.9844
76.828
76.7099
76.6215
76.556
76.5077
76.4725
76.447
76.4287
76.4157
76.4064
76.3999
76.3954
76.3923
76.3902
76.3888
76.388
76.3874
76.3872
76.3872
76.3873
76.3877
76.3883
76.3892
76.3903
76.3919
76.3939
76.3966
76.3999
76.4042
76.4095
76.4161
76.4242
76.4341
76.446
76.4602
76.4768
76.4962
76.5184
76.5436
76.5718
76.6028
76.6364
76.672
76.7092
76.747
76.7842
76.8197
76.8518
76.879
76.8993
76.9109
76.912
76.9007
76.8752
76.8326
76.7638
76.6308
76.2984
75.5499
76.1745
5443.22
-508.937
-455.979
-139.377
9.81291
69.9766
96.7341
111.403
120.979
127.646
132.125
134.724
135.662
135.149
133.404
130.656
127.132
123.05
118.612
113.999
109.366
104.841
100.526
96.4935
92.7945
89.4576
86.4932
83.8975
81.6549
79.7422
78.1304
76.7881
75.6827
74.7821
74.0561
73.4768
73.019
72.6607
72.383
72.1696
72.0072
71.8846
71.7928
71.7248
71.6747
71.6381
71.6117
71.5926
71.5791
71.5695
71.5628
71.5581
71.5549
71.5527
71.5512
71.5503
71.5498
71.5495
71.5494
71.5496
71.55
71.5505
71.5513
71.5525
71.554
71.5559
71.5585
71.5617
71.5659
71.5711
71.5775
71.5854
71.5951
71.6068
71.6207
71.6372
71.6564
71.6786
71.704
71.7325
71.7641
71.7988
71.8361
71.8755
71.9165
71.958
71.9991
72.0383
72.0744
72.1058
72.131
72.1482
72.1561
72.1531
72.1367
72.0989
72.0039
71.7186
71.0149
71.7051
5443.2
-508.994
-456.083
-139.546
9.56058
69.6182
96.2445
110.756
120.148
126.607
130.854
133.204
133.878
133.09
131.066
128.037
124.236
119.886
115.191
110.336
105.477
100.745
96.2415
92.0405
88.1921
84.7243
81.6466
78.9537
76.6288
74.6469
72.9777
71.5882
70.4443
69.5126
68.7618
68.1628
67.6895
67.3192
67.0322
66.8118
66.6439
66.5173
66.4225
66.3522
66.3005
66.2628
66.2354
66.2158
66.2018
66.1919
66.1849
66.1801
66.1768
66.1745
66.173
66.172
66.1715
66.1712
66.1711
66.1712
66.1716
66.1721
66.1729
66.1739
66.1754
66.1772
66.1797
66.1828
66.1868
66.1917
66.198
66.2056
66.215
66.2263
66.2399
66.256
66.2749
66.2968
66.3219
66.3504
66.3822
66.4174
66.4558
66.4969
66.5403
66.5852
66.6309
66.6763
66.7203
66.7615
66.7988
66.8308
66.8564
66.8742
66.8822
66.8734
66.8142
66.5764
65.9299
66.6588
5443.14
-509.163
-456.372
-139.966
8.99431
68.8892
95.3344
109.646
118.819
125.043
129.04
131.128
131.531
130.468
128.168
124.868
120.802
116.197
111.261
106.18
101.112
96.1894
91.5133
87.1584
83.1743
79.5879
76.4078
73.6273
71.2283
69.1844
67.4638
66.032
64.8536
63.8943
63.1213
62.5048
62.0178
61.6369
61.3416
61.1148
60.9422
60.812
60.7146
60.6423
60.5891
60.5503
60.5222
60.502
60.4876
60.4774
60.4703
60.4653
60.4619
60.4596
60.458
60.457
60.4564
60.4561
60.456
60.4561
60.4564
60.4569
60.4576
60.4586
60.46
60.4617
60.464
60.467
60.4707
60.4755
60.4814
60.4887
60.4977
60.5086
60.5216
60.5372
60.5555
60.5768
60.6015
60.6295
60.6612
60.6964
60.7351
60.7772
60.8222
60.8697
60.919
60.9693
61.0197
61.0693
61.117
61.1619
61.2029
61.2392
61.2691
61.2864
61.2599
61.0684
60.4867
61.2309
5443.06
-509.415
-456.798
-140.575
8.19341
67.8843
94.1131
108.195
117.127
123.098
126.835
128.656
128.789
127.456
124.89
121.33
117.014
112.171
107.01
101.72
96.4611
91.3641
86.5314
82.0373
77.9306
74.2376
70.9657
68.1069
65.6418
63.5426
61.7762
60.3069
59.0981
58.1142
57.3217
56.6897
56.1906
55.8002
55.4976
55.2653
55.0885
54.9551
54.8553
54.7813
54.7268
54.6871
54.6583
54.6376
54.6229
54.6125
54.6052
54.6001
54.5966
54.5942
54.5926
54.5915
54.5909
54.5906
54.5904
54.5905
54.5908
54.5912
54.5919
54.5928
54.5941
54.5958
54.5979
54.6007
54.6042
54.6087
54.6143
54.6212
54.6296
54.64
54.6524
54.6673
54.6848
54.7054
54.7292
54.7565
54.7875
54.8223
54.8609
54.9031
54.9489
54.9979
55.0496
55.1035
55.1589
55.215
55.2712
55.3267
55.3808
55.4328
55.4814
55.5211
55.5236
55.3757
54.8626
55.602
5442.96
-509.727
-457.321
-141.315
7.23016
66.6901
92.6799
106.515
115.194
120.906
124.379
125.935
125.805
124.213
121.393
117.588
113.038
107.974
102.607
97.1264
91.6929
86.4382
81.4643
76.8452
72.6289
68.8408
65.4872
62.5589
60.0353
57.8872
56.0805
54.5781
53.3425
52.337
51.5273
50.8817
50.372
49.9733
49.6644
49.4273
49.2468
49.1106
49.0088
48.9332
48.8776
48.8371
48.8077
48.7866
48.7716
48.7609
48.7535
48.7483
48.7447
48.7423
48.7406
48.7396
48.7389
48.7385
48.7384
48.7384
48.7387
48.7391
48.7397
48.7405
48.7417
48.7432
48.7452
48.7478
48.7511
48.7552
48.7604
48.7669
48.7748
48.7845
48.7962
48.8103
48.8269
48.8465
48.8693
48.8955
48.9255
48.9593
48.9972
49.039
49.0847
49.1342
49.1872
49.2433
49.3021
49.363
49.4255
49.4892
49.5535
49.6181
49.6818
49.74
49.7672
49.6593
49.2153
49.9334
5442.84
-510.076
-457.903
-142.135
6.16823
65.3825
91.1223
104.704
113.125
118.579
121.794
123.094
122.712
120.873
117.815
113.782
109.017
103.75
98.1959
92.5426
86.952
81.5558
76.4558
71.7254
67.4119
63.5396
60.1139
57.1244
54.5493
52.3584
50.5163
48.9851
47.726
46.7018
45.877
45.2196
44.7006
44.2948
43.9804
43.739
43.5553
43.4168
43.3131
43.2363
43.1797
43.1385
43.1086
43.0871
43.0718
43.061
43.0534
43.0481
43.0445
43.042
43.0403
43.0392
43.0385
43.0381
43.038
43.038
43.0382
43.0385
43.0391
43.0399
43.0409
43.0423
43.0442
43.0465
43.0496
43.0534
43.0582
43.0641
43.0715
43.0805
43.0914
43.1046
43.1202
43.1386
43.1601
43.185
43.2136
43.2461
43.2827
43.3234
43.3683
43.4174
43.4706
43.5276
43.5881
43.6519
43.7187
43.7881
43.8598
43.9337
44.009
44.0817
44.1289
44.0564
43.6794
44.3633
5442.72
-510.442
-458.514
-142.993
5.06178
64.026
89.5143
102.844
111.013
116.215
119.183
120.239
119.619
117.551
114.273
110.032
105.07
99.6195
93.8957
88.0876
82.3569
76.8349
71.6232
66.7946
62.3955
58.4493
54.9605
51.9175
49.2976
47.0694
45.1965
43.6401
42.3608
41.3203
40.4826
39.8149
39.288
38.8759
38.5568
38.3118
38.1253
37.9847
37.8795
37.8015
37.7441
37.7023
37.672
37.6502
37.6347
37.6237
37.616
37.6106
37.6069
37.6044
37.6027
37.6016
37.6008
37.6004
37.6002
37.6002
37.6004
37.6007
37.6012
37.6019
37.6029
37.6041
37.6058
37.6079
37.6107
37.6142
37.6186
37.624
37.6308
37.6391
37.6491
37.6613
37.6757
37.6929
37.713
37.7364
37.7633
37.7941
37.8289
37.868
37.9115
37.9593
38.0116
38.0682
38.1291
38.1941
38.263
38.3357
38.4122
38.4923
38.5755
38.6585
38.7211
38.6791
38.3651
39.0051
5442.6
-510.81
-459.129
-143.854
3.95517
62.6734
87.9164
101.002
108.929
113.894
116.627
117.457
116.617
114.338
110.859
106.428
101.289
95.6747
89.7999
83.8544
77.9996
72.3669
67.0572
62.1425
57.6687
53.6583
50.1145
47.0252
44.3665
42.106
40.2067
38.6287
37.3319
36.2773
35.4286
34.7522
34.2183
33.801
33.4778
33.2296
33.0409
32.8985
32.792
32.713
32.6549
32.6125
32.5818
32.5598
32.5441
32.533
32.5252
32.5197
32.516
32.5134
32.5117
32.5105
32.5098
32.5094
32.5092
32.5091
32.5093
32.5095
32.51
32.5106
32.5114
32.5126
32.5141
32.516
32.5185
32.5216
32.5256
32.5306
32.5367
32.5442
32.5534
32.5645
32.5778
32.5936
32.6121
32.6338
32.6589
32.6877
32.7205
32.7574
32.7988
32.8447
32.8952
32.9504
33.0102
33.0748
33.144
33.2179
33.2965
33.3798
33.4677
33.5571
33.6308
33.6141
33.3576
33.9471
5442.48
-511.169
-459.726
-144.689
2.88313
61.366
86.3758
99.2308
106.932
111.674
114.192
114.813
113.773
111.302
107.643
103.042
97.7452
91.9852
85.9771
79.9107
73.9474
68.2179
62.8229
57.8336
53.2951
49.2291
45.6381
42.509
39.8169
37.5288
35.6068
34.0104
32.6986
31.6322
30.7739
30.09
29.5504
29.1286
28.8018
28.5511
28.3603
28.2164
28.1088
28.029
27.9703
27.9275
27.8965
27.8742
27.8583
27.8471
27.8392
27.8337
27.8299
27.8273
27.8256
27.8244
27.8237
27.8232
27.823
27.8229
27.823
27.8233
27.8236
27.8242
27.8249
27.826
27.8273
27.829
27.8312
27.834
27.8376
27.842
27.8476
27.8543
27.8626
27.8727
27.8847
27.8991
27.916
27.9359
27.959
27.9856
28.016
28.0505
28.0893
28.1326
28.1806
28.2335
28.2912
28.3539
28.4218
28.4949
28.5734
28.6574
28.7468
28.8393
28.9198
28.9235
28.7183
29.2534
5442.36
-511.509
-460.291
-145.478
1.87144
60.1343
84.9272
97.569
105.061
109.601
111.923
112.355
111.134
108.493
104.673
99.9223
94.4859
88.598
82.4733
76.3017
70.2441
64.431
58.9623
53.9088
49.3148
45.2013
41.5699
38.4068
35.6863
33.3748
31.4335
29.8213
28.497
27.4204
26.5541
25.864
25.3194
24.8938
24.5641
24.3111
24.1187
23.9735
23.865
23.7845
23.7253
23.6821
23.6508
23.6284
23.6124
23.601
23.5931
23.5875
23.5837
23.5811
23.5793
23.5781
23.5774
23.5769
23.5767
23.5766
23.5766
23.5768
23.5771
23.5776
23.5783
23.5792
23.5804
23.5819
23.5838
23.5863
23.5895
23.5934
23.5983
23.6044
23.6118
23.6208
23.6316
23.6445
23.6599
23.6779
23.6989
23.7232
23.7511
23.7828
23.8187
23.859
23.9039
23.9536
24.0083
24.0681
24.1333
24.204
24.2804
24.3628
24.4512
24.5437
24.6275
24.6467
24.4863
24.9654
5442.26
-511.823
-460.813
-146.207
0.937767
58.9992
83.594
96.0422
103.346
107.704
109.849
110.113
108.733
105.941
101.979
97.0969
91.5391
85.5401
79.3146
73.0522
66.9136
61.0288
55.4971
50.3889
45.7476
41.5937
37.9281
34.7362
31.9917
29.6604
27.7028
26.0775
24.7425
23.6575
22.7845
22.089
21.5403
21.1115
20.7794
20.5246
20.3307
20.1845
20.0752
19.9941
19.9345
19.891
19.8595
19.8369
19.8207
19.8093
19.8013
19.7957
19.7919
19.7892
19.7874
19.7863
19.7855
19.785
19.7847
19.7846
19.7846
19.7848
19.7851
19.7855
19.7861
19.7868
19.7879
19.7892
19.7909
19.7931
19.7959
19.7993
19.8037
19.809
19.8156
19.8236
19.8332
19.8447
19.8584
19.8745
19.8934
19.9153
19.9406
19.9695
20.0022
20.0392
20.0806
20.1266
20.1776
20.2336
20.295
20.362
20.4349
20.5139
20.5991
20.6891
20.7731
20.8034
20.6811
21.1047
5442.16
-512.108
-461.287
-146.868
0.0927895
57.9729
82.3903
94.6655
101.802
105.997
107.988
108.104
106.583
103.66
99.5753
94.579
88.9166
82.8221
76.5102
70.1702
63.9626
58.0168
52.4318
47.2772
42.5961
38.4081
34.7137
31.4976
28.733
26.3851
24.414
22.7777
21.4339
20.3417
19.4631
18.7633
18.2112
17.7797
17.4456
17.1892
16.9941
16.8471
16.7371
16.6555
16.5956
16.5518
16.5201
16.4974
16.4811
16.4697
16.4616
16.456
16.4521
16.4494
16.4476
16.4464
16.4456
16.4451
16.4449
16.4447
16.4447
16.4449
16.4451
16.4454
16.4459
16.4466
16.4475
16.4486
16.4501
16.452
16.4544
16.4575
16.4612
16.4659
16.4717
16.4787
16.4871
16.4973
16.5094
16.5237
16.5405
16.56
16.5826
16.6086
16.6381
16.6716
16.7092
16.7512
16.798
16.8496
16.9065
16.9688
17.0369
17.1111
17.1915
17.2771
17.3588
17.3965
17.3059
17.6759
5442.08
-512.362
-461.709
-147.456
-0.658624
57.0611
81.3218
93.4447
100.434
104.488
106.343
106.331
104.689
101.652
97.4621
92.3683
86.6165
80.4408
74.0555
67.6499
61.3839
55.3868
49.757
44.5636
39.8491
35.6327
31.9143
28.678
25.8967
23.535
21.5527
19.9072
18.556
17.458
16.5748
15.8713
15.3164
14.8827
14.547
14.2893
14.0933
13.9455
13.835
13.753
13.6928
13.6488
13.6169
13.5941
13.5778
13.5662
13.5581
13.5525
13.5486
13.5459
13.5441
13.5429
13.5421
13.5416
13.5413
13.5411
13.5411
13.5412
13.5414
13.5417
13.5421
13.5427
13.5434
13.5444
13.5457
13.5473
13.5494
13.552
13.5553
13.5594
13.5644
13.5704
13.5778
13.5867
13.5973
13.6098
13.6246
13.6418
13.6618
13.6848
13.7111
13.741
13.7748
13.8126
13.8548
13.9017
13.9535
14.0106
14.0731
14.1415
14.216
14.2957
14.3732
14.415
14.3502
14.6697
5442
-512.584
-462.078
-147.971
-1.31624
56.2637
80.3881
92.3789
99.2405
103.172
104.912
104.789
103.044
99.9101
95.6305
90.454
84.6267
78.3825
71.9356
65.4749
59.1602
53.1202
47.453
42.2273
37.4851
33.2452
29.5069
26.254
23.4589
21.0859
19.0943
17.4413
16.0841
14.9813
14.0943
13.3878
12.8305
12.3951
12.0579
11.7992
11.6024
11.454
11.3431
11.2608
11.2003
11.1562
11.1242
11.1012
11.0849
11.0733
11.0652
11.0595
11.0556
11.0529
11.0511
11.0498
11.049
11.0485
11.0482
11.0481
11.048
11.0481
11.0482
11.0485
11.0488
11.0493
11.0499
11.0508
11.0519
11.0533
11.055
11.0573
11.0601
11.0636
11.0678
11.0731
11.0794
11.0871
11.0963
11.1072
11.12
11.1351
11.1525
11.1727
11.1959
11.2223
11.2521
11.2858
11.3234
11.3653
11.4118
11.4632
11.5197
11.5818
11.6495
11.7224
11.7943
11.8377
11.7934
12.0662
5441.94
-512.776
-462.397
-148.415
-1.88333
55.5764
79.584
91.4617
98.2145
102.043
103.683
103.467
101.634
98.4188
94.0638
88.818
82.9276
76.6262
70.1279
63.6215
57.2663
51.1909
45.4928
40.2405
35.4755
31.2162
27.4616
24.1951
21.3887
19.0064
17.0072
15.3481
13.986
12.8793
11.9892
11.2803
10.7211
10.2842
9.94595
9.68639
9.48897
9.34011
9.2288
9.14627
9.08556
9.04127
9.00921
8.98618
8.96976
8.95815
8.94999
8.94431
8.94038
8.93768
8.93584
8.93461
8.93379
8.93327
8.93295
8.93277
8.93271
8.93273
8.93285
8.93304
8.93334
8.93374
8.93428
8.935
8.93592
8.9371
8.9386
8.9405
8.94288
8.94584
8.94948
8.95395
8.95939
8.96595
8.97381
8.98317
8.99423
9.00721
9.02233
9.03984
9.05997
9.08297
9.10909
9.13858
9.1717
9.2087
9.24986
9.29546
9.3458
9.40119
9.46185
9.52733
9.59283
9.63575
9.60727
9.83779
5441.88
-512.94
-462.669
-148.793
-2.36566
54.9922
78.9008
90.683
97.344
101.084
102.642
102.347
100.442
97.1583
92.7404
87.4371
81.4943
75.1457
68.6051
62.061
55.6726
49.5681
43.8448
38.5706
33.7871
29.512
25.7441
22.4665
19.651
17.2611
15.2558
13.5917
12.2256
11.1157
10.2231
9.51227
8.9516
8.51352
8.17435
7.9141
7.71617
7.56692
7.45533
7.37258
7.31172
7.26732
7.23517
7.21209
7.19563
7.18398
7.17581
7.17011
7.16616
7.16346
7.16161
7.16037
7.15955
7.15902
7.15868
7.1585
7.15842
7.15842
7.1585
7.15866
7.1589
7.15924
7.15969
7.16028
7.16105
7.16204
7.16331
7.1649
7.1669
7.16939
7.17247
7.17624
7.18084
7.1864
7.19307
7.20103
7.21046
7.22154
7.23448
7.2495
7.26681
7.28664
7.30921
7.33476
7.36353
7.39576
7.4317
7.47163
7.51582
7.56455
7.61806
7.67602
7.73461
7.77558
7.75904
7.95183
5441.84
-513.077
-462.897
-149.11
-2.77062
54.5019
78.3277
90.0301
96.6146
100.282
101.77
101.411
99.4451
96.1055
91.6359
86.2853
80.2996
73.9122
67.337
60.7622
54.3467
48.2186
42.4747
37.183
32.3843
28.0965
24.3179
21.0314
18.2084
15.8125
13.8022
12.1342
10.7649
9.65246
8.75783
8.04542
7.48353
7.04451
6.70462
6.44383
6.24548
6.09592
5.9841
5.90118
5.8402
5.7957
5.7635
5.74036
5.72387
5.7122
5.70401
5.69829
5.69434
5.69163
5.68978
5.68853
5.68771
5.68716
5.68682
5.68662
5.68653
5.68652
5.68657
5.68669
5.68689
5.68716
5.68754
5.68803
5.68867
5.68949
5.69054
5.69187
5.69354
5.69561
5.69818
5.70134
5.7052
5.70986
5.71547
5.72218
5.73013
5.73949
5.75045
5.7632
5.77792
5.79482
5.8141
5.83598
5.86067
5.8884
5.91939
5.95389
5.99217
6.03446
6.08101
6.13157
6.18316
6.22115
6.2133
6.37293
5441.8
-513.191
-463.086
-149.373
-3.10644
54.0954
77.8528
89.4893
96.0108
99.6184
101.05
100.638
98.6219
95.2364
90.7246
85.3355
79.3148
72.8961
66.2929
59.6932
53.2559
47.1086
41.3483
36.0423
31.2316
26.9335
23.1463
19.8527
17.0238
14.623
12.6088
10.9376
9.56574
8.45129
7.55507
6.84141
6.27855
5.83878
5.49831
5.23709
5.03841
4.88861
4.7766
4.69355
4.63247
4.58791
4.55565
4.53247
4.51595
4.50427
4.49606
4.49034
4.48638
4.48366
4.48181
4.48056
4.47972
4.47917
4.47883
4.47862
4.47851
4.47848
4.47851
4.47861
4.47876
4.47898
4.47929
4.47969
4.48022
4.48089
4.48176
4.48286
4.48423
4.48595
4.48808
4.4907
4.4939
4.49778
4.50245
4.50804
4.51468
4.52252
4.5317
4.54241
4.55479
4.56904
4.58533
4.60385
4.6248
4.64837
4.67477
4.70422
4.73694
4.77318
4.81313
4.85665
4.9014
4.9358
4.93401
5.06493
5441.77
-513.285
-463.241
-149.589
-3.38169
53.7624
77.4638
89.0465
95.5166
99.0754
100.461
100.006
97.9495
94.5269
89.981
84.5608
78.512
72.068
65.4423
58.8227
52.3679
46.2054
40.4319
35.1146
30.2942
25.988
22.194
18.8947
16.0611
13.6565
11.6392
9.96541
8.59154
7.4755
6.57801
5.86336
5.29974
4.85938
4.51846
4.25689
4.05796
3.90796
3.79581
3.71265
3.6515
3.60687
3.57457
3.55137
3.53483
3.52313
3.51491
3.50918
3.50521
3.50249
3.50063
3.49938
3.49854
3.49799
3.49764
3.49742
3.4973
3.49726
3.49727
3.49734
3.49746
3.49764
3.49788
3.49821
3.49864
3.49919
3.4999
3.50079
3.50192
3.50333
3.50508
3.50723
3.50986
3.51306
3.51691
3.52153
3.52702
3.53351
3.54114
3.55003
3.56035
3.57223
3.58585
3.60135
3.61892
3.63873
3.66095
3.68579
3.71344
3.74411
3.77797
3.81494
3.85323
3.88373
3.88595
3.99231
5441.74
-513.361
-463.367
-149.764
-3.60476
53.4925
77.1488
88.688
95.1166
98.6361
99.9846
99.4944
97.4062
93.9538
89.3806
83.9356
77.8644
71.4002
64.7566
58.1212
51.6525
45.4779
39.694
34.3677
29.5397
25.2271
21.4277
18.1239
15.2867
12.879
10.8592
9.18352
7.80807
6.69077
5.79229
5.07687
4.51264
4.07182
3.73055
3.46871
3.26957
3.11942
3.00716
2.92392
2.8627
2.81804
2.7857
2.76248
2.74592
2.73421
2.72598
2.72024
2.71627
2.71355
2.71169
2.71043
2.70959
2.70903
2.70867
2.70845
2.70832
2.70827
2.70827
2.70831
2.7084
2.70854
2.70874
2.709
2.70935
2.7098
2.71037
2.7111
2.71201
2.71316
2.71458
2.71633
2.71848
2.72108
2.72423
2.72801
2.73251
2.73784
2.7441
2.75142
2.75992
2.76974
2.78099
2.79384
2.80842
2.82488
2.84338
2.86409
2.88717
2.91282
2.94118
2.97221
3.00454
3.03109
3.03575
3.12139
5441.72
-513.421
-463.468
-149.905
-3.7836
53.2762
76.8963
88.4008
94.7963
98.2844
99.6034
99.0856
96.9717
93.4957
88.9009
83.4362
77.3472
70.8672
64.2094
57.5616
51.082
44.8979
39.1057
33.7725
28.9385
24.6209
20.8172
17.5099
14.6698
12.2598
10.2381
8.56085
7.18416
6.06588
5.16663
4.45061
3.88591
3.44473
3.10318
2.84114
2.64184
2.49157
2.37923
2.29592
2.23465
2.18995
2.15759
2.13435
2.11778
2.10606
2.09782
2.09208
2.08811
2.08538
2.08352
2.08226
2.08141
2.08086
2.08049
2.08026
2.08013
2.08006
2.08005
2.08007
2.08014
2.08025
2.08041
2.08062
2.08089
2.08125
2.08171
2.0823
2.08303
2.08396
2.0851
2.08652
2.08825
2.09036
2.09291
2.09597
2.09962
2.10395
2.10905
2.11502
2.12195
2.12997
2.13919
2.14972
2.16168
2.17522
2.19045
2.20753
2.22659
2.24779
2.27127
2.29701
2.32397
2.34671
2.35266
2.42099
5441.71
-513.47
-463.548
-150.016
-3.92549
53.1047
76.6961
88.1732
94.5424
98.0057
99.3014
98.7618
96.6278
93.1331
88.5214
83.0413
76.9384
70.4459
63.7771
57.1195
50.6313
44.4398
38.6413
33.3026
28.464
24.1424
20.3355
17.0255
14.1832
11.7713
9.74817
8.06971
6.69207
5.57303
4.67319
3.9567
3.39165
2.95018
2.60842
2.34622
2.1468
1.99644
1.88402
1.80067
1.73936
1.69464
1.66226
1.639
1.62242
1.61069
1.60245
1.59671
1.59273
1.59
1.58814
1.58688
1.58603
1.58547
1.5851
1.58487
1.58473
1.58465
1.58462
1.58464
1.58468
1.58477
1.58489
1.58505
1.58527
1.58556
1.58593
1.58639
1.58698
1.58772
1.58863
1.58976
1.59115
1.59284
1.59489
1.59735
1.60029
1.60377
1.60788
1.6127
1.61831
1.6248
1.63226
1.64081
1.65053
1.66154
1.67395
1.68788
1.70345
1.72079
1.74002
1.76113
1.78335
1.80252
1.80895
1.863
5441.7
-513.508
-463.611
-150.103
-4.03693
52.97
76.5389
87.9944
94.3432
97.787
99.0645
98.508
96.3582
92.849
88.224
82.732
76.6183
70.1161
63.4388
56.7736
50.2788
44.0816
38.2781
32.9352
28.093
23.7685
19.959
16.647
13.8029
11.3896
9.36533
7.68595
6.30758
5.18796
4.28766
3.57081
3.00548
2.5638
2.22188
1.95955
1.76004
1.60961
1.49714
1.41375
1.35242
1.30767
1.27528
1.25201
1.23542
1.22368
1.21544
1.20969
1.20572
1.20298
1.20112
1.19985
1.19901
1.19844
1.19807
1.19784
1.19769
1.19761
1.19757
1.19757
1.1976
1.19767
1.19776
1.19789
1.19806
1.19828
1.19857
1.19894
1.19941
1.19999
1.20072
1.20161
1.20272
1.20406
1.20569
1.20765
1.20999
1.21277
1.21605
1.2199
1.22439
1.22959
1.23558
1.24245
1.25027
1.25914
1.26915
1.2804
1.29298
1.30701
1.32258
1.33971
1.35782
1.37376
1.38012
1.42251
5441.69
-513.537
-463.66
-150.171
-4.1236
52.8652
76.4167
87.8555
94.1883
97.6172
98.8805
98.3109
96.1488
92.6285
87.9933
82.492
76.37
69.8604
63.1764
56.5055
50.0056
43.804
37.9968
32.6506
27.8057
23.4788
19.6675
16.3538
13.5084
11.0941
9.06891
7.38883
6.0099
4.88984
3.98919
3.27207
2.70652
2.26469
1.92264
1.66021
1.46063
1.31015
1.19764
1.11422
1.05287
1.0081
0.975699
0.952423
0.93583
0.92409
0.915844
0.910095
0.906115
0.90338
0.901513
0.900249
0.8994
0.898834
0.898462
0.898222
0.898072
0.897984
0.897941
0.897932
0.89795
0.897994
0.898065
0.898164
0.898298
0.898474
0.8987
0.898989
0.899354
0.899813
0.900383
0.901089
0.901956
0.903015
0.904298
0.905843
0.907693
0.909892
0.91249
0.915541
0.919101
0.923231
0.927994
0.933457
0.939689
0.946762
0.954753
0.963742
0.973812
0.985048
0.997534
1.01129
1.02588
1.03896
1.0449
1.07787
5441.68
-513.56
-463.698
-150.224
-4.19036
52.7845
76.3226
87.7485
94.0691
97.4864
98.739
98.1592
95.9878
92.459
87.8159
82.3075
76.1791
69.6639
62.9749
56.2995
49.7958
43.5909
37.7807
32.4321
27.5851
23.2565
19.4437
16.1288
13.2824
10.8673
8.84145
7.16085
5.78149
4.6611
3.76018
3.04286
2.47715
2.03519
1.69305
1.43055
1.23092
1.0804
0.96786
0.884416
0.823046
0.77827
0.745858
0.722576
0.705978
0.694235
0.685987
0.680236
0.676255
0.673519
0.671651
0.670386
0.669536
0.668969
0.668595
0.668352
0.668199
0.668107
0.668058
0.66804
0.668048
0.668078
0.66813
0.668206
0.668309
0.668445
0.668621
0.668846
0.66913
0.669487
0.669931
0.670482
0.671159
0.671985
0.672988
0.674197
0.675646
0.677369
0.679407
0.681802
0.684601
0.68785
0.691601
0.695907
0.700824
0.706412
0.71273
0.719845
0.727822
0.736733
0.746642
0.757572
0.769217
0.779815
0.785144
0.810583
5441.67
-513.577
-463.726
-150.264
-4.24132
52.7229
76.2508
87.6669
93.9782
97.3867
98.631
98.0435
95.8651
92.3297
87.6808
82.167
76.0338
69.5143
62.8214
56.1427
49.6361
43.4286
37.6163
32.2659
27.4173
23.0874
19.2735
15.9576
13.1105
10.6948
8.66845
6.98745
5.60777
4.48712
3.58602
2.86853
2.30271
1.86066
1.51845
1.2559
1.05622
0.905669
0.793108
0.709647
0.648265
0.60348
0.571061
0.547775
0.531174
0.519428
0.511179
0.505427
0.501444
0.498707
0.496839
0.495573
0.494722
0.494154
0.493778
0.493534
0.493378
0.493282
0.493228
0.493205
0.493204
0.493223
0.493261
0.493317
0.493396
0.4935
0.493635
0.493808
0.494028
0.494303
0.494647
0.495073
0.495597
0.496237
0.497015
0.497952
0.499077
0.500416
0.502
0.503864
0.506044
0.508577
0.511504
0.514868
0.518712
0.523084
0.528034
0.533611
0.53987
0.546868
0.554657
0.563259
0.572454
0.580943
0.585577
0.605045
5441.67
-513.59
-463.748
-150.294
-4.27986
52.6764
76.1965
87.6052
93.9095
97.3113
98.5494
97.9562
95.7724
92.2321
87.5787
82.0609
75.9241
69.4013
62.7056
56.0244
49.5156
43.3062
37.4923
32.1405
27.2907
22.9598
19.1451
15.8286
12.9809
10.5647
8.53799
6.85669
5.47678
4.35595
3.45469
2.73709
2.17118
1.72906
1.38679
1.1242
0.924499
0.773924
0.661346
0.577873
0.516482
0.471691
0.439267
0.415976
0.399374
0.387626
0.379375
0.373622
0.369639
0.366901
0.365032
0.363766
0.362914
0.362345
0.361969
0.361722
0.361564
0.361466
0.361408
0.36138
0.361373
0.361383
0.361409
0.36145
0.361509
0.361588
0.361692
0.361824
0.361992
0.362203
0.362467
0.362793
0.363195
0.363687
0.364285
0.365006
0.365872
0.366903
0.368125
0.369563
0.371246
0.373203
0.375467
0.378071
0.381049
0.384439
0.38828
0.392612
0.397477
0.402921
0.408986
0.415691
0.42288
0.429604
0.433532
0.448315
5441.66
-513.6
-463.764
-150.317
-4.30875
52.6415
76.1558
87.559
93.858
97.2549
98.4883
97.8907
95.7029
92.159
87.5023
81.9814
75.8419
69.3168
62.619
55.9359
49.4255
43.2147
37.3995
32.0467
27.1961
22.8644
19.0491
15.7321
12.884
10.4674
8.44045
6.75893
5.37884
4.25787
3.3565
2.63882
2.07284
1.63067
1.28836
1.02574
0.826016
0.675424
0.562835
0.479352
0.417954
0.373158
0.340731
0.317438
0.300833
0.289084
0.280832
0.275079
0.271095
0.268357
0.266488
0.265221
0.264368
0.263798
0.263421
0.263174
0.263014
0.262914
0.262853
0.262821
0.262808
0.262812
0.262828
0.262858
0.262902
0.262961
0.263039
0.26314
0.263267
0.263427
0.263628
0.263877
0.264183
0.264558
0.265013
0.265564
0.266224
0.267012
0.267946
0.269046
0.270334
0.271834
0.273569
0.275567
0.277854
0.280459
0.283413
0.286747
0.290495
0.294691
0.29937
0.304548
0.310116
0.315384
0.318644
0.329783
5441.66
-513.607
-463.777
-150.334
-4.33022
52.6155
76.1255
87.5246
93.8197
97.2129
98.4429
97.8421
95.6514
92.1047
87.4455
81.9225
75.781
69.254
62.5546
55.8702
49.3586
43.1467
37.3307
31.9771
27.1258
22.7936
18.9779
15.6605
12.8121
10.3953
8.36812
6.68643
5.30622
4.18514
3.28369
2.56595
1.99992
1.55771
1.21538
0.952737
0.752994
0.60239
0.489791
0.406302
0.344899
0.300099
0.267669
0.244374
0.227768
0.216018
0.207766
0.202011
0.198027
0.195289
0.193419
0.192152
0.191299
0.190729
0.190351
0.190103
0.189942
0.189839
0.189777
0.189741
0.189725
0.189723
0.189733
0.189753
0.189785
0.189829
0.189887
0.189963
0.190059
0.19018
0.190331
0.190519
0.19075
0.191033
0.191378
0.191794
0.192294
0.192891
0.193599
0.194433
0.195411
0.19655
0.197869
0.199389
0.20113
0.203114
0.205366
0.20791
0.210771
0.213977
0.217553
0.221516
0.225788
0.229874
0.23253
0.240859
5441.66
-513.613
-463.786
-150.346
-4.34604
52.5964
76.1032
87.4993
93.7915
97.182
98.4094
97.8063
95.6134
92.0648
87.4037
81.8791
75.7361
69.2078
62.5073
55.8218
49.3093
43.0968
37.2801
31.9259
27.0742
22.7416
18.9255
15.6078
12.7592
10.3422
8.31492
6.63311
5.25281
4.13165
3.23015
2.51235
1.94629
1.50405
1.1617
0.899044
0.699289
0.548675
0.43607
0.352576
0.291169
0.246367
0.213935
0.190639
0.174032
0.162281
0.154028
0.148273
0.144289
0.14155
0.13968
0.138413
0.137559
0.136989
0.13661
0.136361
0.1362
0.136096
0.136031
0.135994
0.135974
0.135968
0.135972
0.135986
0.136009
0.136041
0.136084
0.13614
0.136212
0.136302
0.136415
0.136556
0.136729
0.136942
0.1372
0.137513
0.137888
0.138337
0.138869
0.139497
0.140233
0.141091
0.142085
0.143231
0.144545
0.146044
0.147746
0.149669
0.151835
0.154262
0.156973
0.159979
0.163228
0.166365
0.168493
0.174675
5441.66
-513.617
-463.792
-150.355
-4.3576
52.5824
76.087
87.4808
93.7709
97.1594
98.385
97.7802
95.5857
92.0356
87.3732
81.8474
75.7033
69.1741
62.4728
55.7866
49.2734
43.0603
37.2431
31.8886
27.0365
22.7036
18.8873
15.5694
12.7206
10.3035
8.2761
6.59421
5.21383
4.09263
3.19108
2.47325
1.90717
1.46491
1.12254
0.859869
0.660105
0.509485
0.396875
0.313377
0.251968
0.207164
0.17473
0.151433
0.134825
0.123074
0.114821
0.109066
0.105081
0.102342
0.100472
0.0992044
0.0983508
0.09778
0.0974012
0.0971517
0.0969891
0.0968845
0.0968187
0.0967789
0.096757
0.0967478
0.0967481
0.0967564
0.096772
0.0967952
0.0968268
0.0968681
0.0969212
0.0969883
0.0970724
0.0971769
0.0973058
0.0974639
0.0976563
0.097889
0.0981688
0.0985031
0.0989001
0.0993685
0.0999181
0.100559
0.101302
0.10216
0.103143
0.104266
0.105541
0.106983
0.108608
0.110431
0.112467
0.114728
0.117176
0.119562
0.121243
0.125798
5441.66
-513.62
-463.797
-150.362
-4.36598
52.5723
76.0752
87.4674
93.756
97.1431
98.3673
97.7612
95.5656
92.0144
87.3511
81.8244
75.6796
69.1497
62.4478
55.761
49.2474
43.0339
37.2164
31.8615
27.0092
22.6761
18.8596
15.5416
12.6927
10.2755
8.248
6.56605
5.18562
4.06438
3.1628
2.44495
1.87884
1.43657
1.09419
0.83151
0.63174
0.481116
0.368502
0.285002
0.223591
0.178785
0.146351
0.123053
0.106444
0.094693
0.0864392
0.0806839
0.0766994
0.0739601
0.07209
0.0708221
0.0699682
0.0693972
0.0690181
0.0687682
0.068605
0.0684997
0.0684329
0.0683918
0.0683681
0.0683564
0.0683536
0.0683578
0.0683681
0.0683844
0.0684072
0.0684375
0.0684764
0.0685258
0.0685878
0.0686648
0.06876
0.0688766
0.0690187
0.0691907
0.0693976
0.0696448
0.0699385
0.0702853
0.0706924
0.0711674
0.0717186
0.0723545
0.0730846
0.0739183
0.0748661
0.0759388
0.0771477
0.0785049
0.0800222
0.0817078
0.0835375
0.0853351
0.0866439
0.0899757
5441.66
-513.622
-463.8
-150.366
-4.372
52.565
76.0667
87.4577
93.7452
97.1313
98.3546
97.7476
95.5511
91.9992
87.3353
81.8079
75.6625
69.1322
62.4298
55.7426
49.2287
43.0149
37.1972
31.8421
26.9896
22.6564
18.8397
15.5216
12.6726
10.2554
8.22781
6.54582
5.16536
4.04408
3.14248
2.42461
1.85849
1.41621
1.07383
0.81114
0.611366
0.460738
0.348122
0.26462
0.203207
0.1584
0.125965
0.102667
0.086058
0.0743063
0.0660523
0.0602969
0.0563122
0.0535729
0.0517027
0.0504346
0.0495806
0.0490095
0.0486301
0.0483799
0.0482163
0.0481104
0.0480428
0.0480007
0.0479757
0.0479622
0.0479571
0.0479582
0.0479645
0.0479757
0.0479919
0.0480137
0.048042
0.0480781
0.0481234
0.0481798
0.0482495
0.0483349
0.0484391
0.0485652
0.0487169
0.0488984
0.049114
0.0493687
0.0496679
0.0500171
0.0504225
0.0508906
0.0514282
0.0520425
0.0527412
0.0535324
0.0544246
0.0554268
0.056548
0.0577946
0.0591504
0.0604927
0.0614992
0.063919
5441.66
-513.623
-463.803
-150.37
-4.3763
52.5598
76.0606
87.4509
93.7376
97.1229
98.3455
97.7379
95.5408
91.9884
87.3239
81.7961
75.6504
69.1197
62.417
55.7296
49.2154
43.0014
37.1835
31.8282
26.9756
22.6423
18.8255
15.5074
12.6583
10.241
8.21342
6.5314
5.15091
4.02962
3.128
2.41012
1.84399
1.4017
1.05931
0.796619
0.596842
0.446211
0.333593
0.25009
0.188676
0.143869
0.111433
0.0881342
0.0715252
0.0597733
0.0515191
0.0457636
0.0417788
0.0390394
0.0371691
0.035901
0.0350469
0.0344756
0.034096
0.0338456
0.0336817
0.0335754
0.0335073
0.0334644
0.0334383
0.0334236
0.0334167
0.0334154
0.0334188
0.0334261
0.0334374
0.033453
0.0334734
0.0334995
0.0335323
0.0335733
0.0336239
0.0336861
0.0337618
0.0338536
0.0339641
0.0340962
0.0342533
0.034439
0.0346571
0.0349119
0.0352078
0.0355496
0.0359423
0.0363913
0.0369023
0.0374813
0.0381345
0.0388687
0.0396905
0.040605
0.0416014
0.0425949
0.0433599
0.045105
5441.66
-513.624
-463.804
-150.372
-4.37934
52.5562
76.0563
87.446
93.7322
97.117
98.3391
97.731
95.5336
91.9808
87.3159
81.7878
75.6418
69.1108
62.4079
55.7203
49.206
42.9918
37.1738
31.8184
26.9657
22.6323
18.8155
15.4973
12.6482
10.2309
8.20324
6.52119
5.14069
4.01938
3.11775
2.39986
1.83373
1.39143
1.04904
0.786345
0.586565
0.435933
0.323313
0.239809
0.178395
0.133587
0.101151
0.0778516
0.0612423
0.0494903
0.041236
0.0354804
0.0314956
0.0287561
0.0268858
0.0256175
0.0247634
0.024192
0.0238123
0.0235618
0.0233976
0.023291
0.0232224
0.023179
0.0231522
0.0231364
0.0231282
0.0231253
0.0231265
0.023131
0.0231386
0.0231495
0.0231641
0.0231828
0.0232064
0.0232359
0.0232725
0.0233173
0.023372
0.0234383
0.0235181
0.0236136
0.0237272
0.0238615
0.0240194
0.0242038
0.0244181
0.0246658
0.0249505
0.0252762
0.025647
0.0260673
0.0265418
0.0270754
0.027673
0.0283385
0.029065
0.0297941
0.030369
0.031619
5441.66
-513.625
-463.806
-150.374
-4.38146
52.5536
76.0533
87.4426
93.7284
97.1128
98.3346
97.7262
95.5285
91.9754
87.3103
81.782
75.6358
69.1046
62.4015
55.7138
49.1994
42.9851
37.167
31.8116
26.9588
22.6253
18.8085
15.4902
12.6411
10.2237
8.19609
6.51403
5.13351
4.01219
3.11056
2.39266
1.82652
1.38422
1.04182
0.779129
0.579347
0.428714
0.316093
0.232588
0.171173
0.126365
0.0939288
0.0706294
0.05402
0.0422678
0.0340135
0.0282578
0.024273
0.0215334
0.0196631
0.0183948
0.0175406
0.0169691
0.0165894
0.0163387
0.0161744
0.0160675
0.0159986
0.0159548
0.0159274
0.015911
0.0159018
0.0158977
0.0158972
0.0158996
0.0159046
0.0159121
0.0159223
0.0159356
0.0159525
0.0159736
0.0159997
0.0160318
0.0160711
0.0161186
0.0161758
0.0162444
0.0163259
0.0164223
0.0165357
0.0166682
0.0168222
0.0170003
0.0172052
0.0174396
0.0177066
0.0180094
0.0183514
0.0187362
0.0191675
0.019648
0.0201735
0.0207042
0.0211318
0.0220209
5441.66
-513.625
-463.806
-150.375
-4.38294
52.5518
76.0513
87.4402
93.7258
97.1099
98.3315
97.7229
95.5249
91.9716
87.3064
81.7779
75.6316
69.1003
62.3971
55.7093
49.1948
42.9804
37.1622
31.8068
26.954
22.6205
18.8036
15.4853
12.6362
10.2188
8.19111
6.50904
5.12851
4.00718
3.10554
2.38764
1.8215
1.37919
1.03679
0.774097
0.574314
0.42368
0.311059
0.227553
0.166138
0.121329
0.088893
0.0655935
0.0489839
0.0372317
0.0289773
0.0232216
0.0192367
0.0164971
0.0146267
0.0133584
0.0125042
0.0119326
0.0115528
0.011302
0.0111376
0.0110306
0.0109615
0.0109173
0.0108896
0.0108726
0.0108627
0.0108577
0.010856
0.0108569
0.01086
0.010865
0.0108721
0.0108814
0.0108933
0.0109083
0.0109269
0.0109497
0.0109776
0.0110114
0.0110522
0.011101
0.0111591
0.0112278
0.0113086
0.0114032
0.0115131
0.0116402
0.0117864
0.0119539
0.0121447
0.0123612
0.0126059
0.0128813
0.0131901
0.0135345
0.0139117
0.0142948
0.0146096
0.0152379
5441.66
-513.626
-463.807
-150.376
-4.38395
52.5506
76.0498
87.4386
93.724
97.108
98.3293
97.7206
95.5225
91.9691
87.3037
81.7751
75.6287
69.0973
62.3941
55.7062
49.1916
42.9772
37.159
31.8035
26.9506
22.6171
18.8002
15.4819
12.6327
10.2153
8.18767
6.50558
5.12505
4.00371
3.10207
2.38417
1.81802
1.37571
1.03331
0.770614
0.57083
0.420195
0.307574
0.224067
0.162652
0.117843
0.0854065
0.0621069
0.0454973
0.033745
0.0254906
0.0197348
0.0157499
0.0130103
0.0111398
0.00987152
0.00901726
0.0084457
0.00806581
0.00781497
0.00765045
0.0075433
0.00747404
0.00742969
0.00740165
0.00738427
0.0073739
0.00736819
0.00736568
0.00736548
0.00736711
0.00737035
0.00737515
0.00738162
0.00738997
0.00740051
0.0074136
0.00742974
0.00744944
0.00747335
0.00750216
0.00753668
0.00757776
0.00762639
0.0076836
0.00775051
0.00782836
0.00791842
0.00802209
0.00814082
0.00827619
0.00842986
0.00860359
0.00879924
0.00901875
0.0092637
0.00953238
0.00980675
0.0100364
0.0104774
5441.66
-513.626
-463.807
-150.376
-4.38462
52.5498
76.0489
87.4375
93.7228
97.1066
98.3279
97.719
95.5208
91.9674
87.3019
81.7733
75.6267
69.0953
62.392
55.7041
49.1894
42.975
37.1567
31.8012
26.9483
22.6148
18.7979
15.4796
12.6304
10.213
8.1853
6.50321
5.12267
4.00133
3.09968
2.38178
1.81563
1.37332
1.03092
0.76822
0.568436
0.4178
0.305178
0.221671
0.160256
0.115446
0.0830098
0.05971
0.0431003
0.031348
0.0230935
0.0173377
0.0133527
0.0106131
0.00874268
0.00747433
0.00662005
0.00604846
0.00566853
0.00541764
0.00525306
0.00514582
0.00507645
0.00503194
0.00500369
0.00498604
0.00497531
0.00496913
0.004966
0.00496502
0.00496564
0.00496759
0.00497076
0.00497518
0.00498096
0.00498831
0.00499747
0.00500878
0.0050226
0.00503937
0.0050596
0.00508383
0.00511269
0.00514685
0.00518705
0.00523409
0.00528882
0.00535218
0.00542513
0.00550871
0.00560404
0.00571231
0.00583477
0.00597275
0.00612763
0.00630058
0.00649056
0.00668555
0.00685144
0.00715899
5441.66
-513.626
-463.808
-150.377
-4.38506
52.5493
76.0483
87.4368
93.722
97.1058
98.327
97.718
95.5198
91.9662
87.3007
81.772
75.6254
69.094
62.3906
55.7026
49.188
42.9735
37.1552
31.7997
26.9468
22.6132
18.7963
15.478
12.6288
10.2114
8.18369
6.5016
5.12105
3.99971
3.09806
2.38015
1.814
1.37169
1.02929
0.766587
0.566801
0.416165
0.303542
0.220036
0.15862
0.11381
0.0813735
0.0580737
0.0414639
0.0297115
0.0214569
0.0157011
0.0117161
0.00897649
0.00710603
0.00583767
0.00498336
0.00441175
0.0040318
0.00378088
0.00361625
0.00350894
0.00343949
0.00339487
0.00336647
0.00334863
0.00333764
0.00333112
0.00332756
0.00332602
0.00332592
0.00332695
0.00332896
0.00333191
0.00333587
0.00334094
0.0033473
0.00335516
0.00336478
0.00337647
0.00339057
0.00340746
0.00342759
0.00345142
0.00347947
0.0035123
0.00355052
0.00359477
0.00364574
0.00370416
0.00377082
0.00384655
0.00393225
0.00402886
0.00413736
0.00425859
0.00439195
0.00452947
0.00464828
0.00486137
5441.66
-513.626
-463.808
-150.377
-4.38531
52.5489
76.0479
87.4364
93.7215
97.1052
98.3264
97.7174
95.5191
91.9655
87.3
81.7712
75.6246
69.0931
62.3897
55.7017
49.187
42.9726
37.1543
31.7987
26.9458
22.6122
18.7953
15.4769
12.6277
10.2103
8.18261
6.50051
5.11996
3.99862
3.09696
2.37905
1.8129
1.37059
1.02818
0.765481
0.565694
0.415057
0.302434
0.218927
0.157511
0.112701
0.0802641
0.0569642
0.0403543
0.0286018
0.0203472
0.0145914
0.0106063
0.0078667
0.00599622
0.00472784
0.00387352
0.0033019
0.00292192
0.00267098
0.00250631
0.00239897
0.00232945
0.00228475
0.00225625
0.00223827
0.0022271
0.00222034
0.00221648
0.00221453
0.00221392
0.0022143
0.00221549
0.00221741
0.00222007
0.00222354
0.00222791
0.00223334
0.00223999
0.00224808
0.00225783
0.00226953
0.00228347
0.00229998
0.00231942
0.00234218
0.00236868
0.00239936
0.00243473
0.00247527
0.00252155
0.00257416
0.00263371
0.00270087
0.00277634
0.00286072
0.00295366
0.00304994
0.0031343
0.00328101
5441.66
-513.626
-463.808
-150.377
-4.38543
52.5488
76.0477
87.4362
93.7213
97.105
98.3261
97.7171
95.5187
91.9651
87.2996
81.7708
75.6241
69.0926
62.3892
55.7012
49.1865
42.972
37.1536
31.7981
26.9451
22.6115
18.7946
15.4762
12.627
10.2096
8.1819
6.49979
5.11924
3.99789
3.09623
2.37831
1.81216
1.36985
1.02744
0.764737
0.56495
0.414312
0.301688
0.218181
0.156764
0.111954
0.0795171
0.056217
0.039607
0.0278545
0.0195999
0.0138439
0.00985888
0.00711921
0.00524871
0.00398032
0.00312598
0.00255434
0.00217435
0.00192339
0.0017587
0.00165132
0.00158176
0.00153701
0.00150844
0.00149036
0.00147906
0.00147214
0.00146805
0.00146583
0.00146486
0.00146479
0.00146539
0.00146659
0.00146834
0.00147068
0.00147366
0.00147737
0.00148194
0.00148749
0.0014942
0.00150224
0.00151183
0.00152319
0.00153657
0.00155224
0.00157048
0.00159162
0.00161599
0.00164394
0.00167585
0.00171213
0.00175323
0.0017996
0.00185173
0.00191005
0.00197437
0.00204128
0.00210069
0.00220106
5441.66
-513.626
-463.808
-150.377
-4.38544
52.5488
76.0477
87.4362
93.7212
97.1049
98.326
97.717
95.5186
91.965
87.2994
81.7706
75.6239
69.0924
62.3889
55.7009
49.1862
42.9716
37.1533
31.7977
26.9447
22.6111
18.7942
15.4758
12.6266
10.2092
8.18144
6.49932
5.11876
3.99741
3.09575
2.37783
1.81167
1.36936
1.02695
0.764242
0.564454
0.413815
0.301191
0.217682
0.156265
0.111455
0.0790177
0.0557174
0.0391072
0.0273546
0.0190999
0.0133439
0.00935879
0.00661908
0.00474856
0.00348015
0.0026258
0.00205415
0.00167415
0.00142317
0.00125846
0.00115106
0.00108147
0.00103668
0.00100805
0.000989903
0.000978515
0.000971479
0.000967245
0.000964827
0.00096361
0.000963215
0.000963421
0.00096411
0.000965231
0.00096678
0.000968787
0.000971307
0.000974414
0.000978202
0.000982781
0.000988276
0.000994827
0.00100259
0.00101174
0.00102245
0.00103493
0.00104939
0.00106607
0.0010852
0.00110705
0.00113191
0.00116008
0.00119187
0.00122763
0.00126767
0.00131188
0.00135805
0.00139955
0.0014678
5441.66
-513.626
-463.808
-150.377
-4.38535
52.5489
76.0478
87.4363
93.7213
97.105
98.3261
97.7171
95.5187
91.9651
87.2995
81.7706
75.6239
69.0924
62.3889
55.7008
49.1861
42.9715
37.1531
31.7975
26.9446
22.6109
18.7939
15.4756
12.6263
10.2089
8.18116
6.49904
5.11847
3.99711
3.09544
2.37751
1.81135
1.36903
1.02662
0.763917
0.564127
0.413487
0.300861
0.217352
0.155935
0.111124
0.0786861
0.0553856
0.0387752
0.0270224
0.0187676
0.0130116
0.00902641
0.00628667
0.00441612
0.00314769
0.00229332
0.00172165
0.00134163
0.00109064
0.000925921
0.000818503
0.000748894
0.000704076
0.000675412
0.000657215
0.000645765
0.000638648
0.000634309
0.000631757
0.000630366
0.000629751
0.000629678
0.000630016
0.000630699
0.000631703
0.000633036
0.000634729
0.000636827
0.000639392
0.000642497
0.000646224
0.000650671
0.000655941
0.000662151
0.000669428
0.000677907
0.000687736
0.000699071
0.000712081
0.000726947
0.000743864
0.000763039
0.000784694
0.000809063
0.00083636
0.00086654
0.000898181
0.000926941
0.000973062
5441.66
-513.626
-463.808
-150.377
-4.38516
52.5491
76.0481
87.4366
93.7216
97.1053
98.3264
97.7174
95.519
91.9653
87.2997
81.7709
75.6241
69.0925
62.3891
55.7009
49.1862
42.9716
37.1532
31.7975
26.9445
22.6109
18.7939
15.4755
12.6262
10.2088
8.18101
6.49888
5.1183
3.99693
3.09525
2.37732
1.81115
1.36883
1.02642
0.763707
0.563914
0.413273
0.300646
0.217136
0.155717
0.110906
0.0784678
0.0551669
0.0385563
0.0268033
0.0185484
0.0127922
0.00880697
0.00606717
0.00419658
0.00292812
0.00207373
0.00150205
0.00112202
0.000871015
0.000706284
0.000598852
0.000529228
0.00048439
0.0004557
0.00043747
0.000425977
0.000418805
0.000414394
0.000411748
0.000410239
0.000409472
0.000409208
0.000409305
0.000409685
0.000410314
0.000411185
0.000412309
0.000413713
0.000415437
0.000417527
0.000420039
0.000423036
0.000426591
0.000430781
0.000435691
0.000441414
0.000448049
0.000455704
0.000464493
0.000474539
0.000485975
0.000498943
0.000513595
0.000530091
0.00054858
0.000569045
0.000590578
0.00061036
0.00064134
5441.66
-513.626
-463.807
-150.377
-4.38485
52.5495
76.0485
87.437
93.7221
97.1058
98.3269
97.7179
95.5195
91.9658
87.3002
81.7713
75.6246
69.0929
62.3894
55.7012
49.1864
42.9718
37.1534
31.7977
26.9446
22.6109
18.7939
15.4755
12.6262
10.2087
8.18097
6.49881
5.11822
3.99684
3.09515
2.37721
1.81104
1.36871
1.02629
0.763576
0.56378
0.413136
0.300507
0.216996
0.155576
0.110764
0.0783255
0.0550241
0.0384131
0.0266599
0.0184047
0.0126484
0.00866308
0.0059232
0.00405256
0.00278406
0.00192965
0.00135794
0.000977896
0.000726879
0.000562136
0.000454694
0.000385057
0.000340205
0.000311498
0.000293245
0.000281722
0.000274511
0.000270051
0.000267342
0.000265751
0.000264881
0.000264486
0.000264418
0.000264592
0.000264965
0.000265519
0.000266255
0.000267186
0.000268334
0.000269731
0.000271412
0.00027342
0.000275801
0.00027861
0.000281902
0.00028574
0.000290191
0.000295327
0.000301225
0.00030797
0.000315651
0.000324364
0.000334213
0.000345307
0.000357749
0.000371535
0.000386091
0.000399598
0.000420283
5441.66
-513.626
-463.807
-150.376
-4.38441
52.55
76.0491
87.4377
93.7228
97.1066
98.3277
97.7187
95.5203
91.9666
87.3009
81.772
75.6252
69.0935
62.3899
55.7017
49.1869
42.9722
37.1537
31.798
26.9449
22.6111
18.7941
15.4756
12.6263
10.2088
8.181
6.49882
5.11821
3.99681
3.09511
2.37716
1.81098
1.36864
1.02622
0.763499
0.5637
0.413052
0.300421
0.216908
0.155487
0.110674
0.0782338
0.0549318
0.0383204
0.0265668
0.0183113
0.0125549
0.0085694
0.00582942
0.00395871
0.00269016
0.00183571
0.00126398
0.000883913
0.000632882
0.000468128
0.000360675
0.000291028
0.000246165
0.000217445
0.000199176
0.000187633
0.000180396
0.000175901
0.000173149
0.000171503
0.000170563
0.000170079
0.000169899
0.000169933
0.000170133
0.000170472
0.000170944
0.000171554
0.000172312
0.000173238
0.000174356
0.000175691
0.000177277
0.000179147
0.00018134
0.000183897
0.000186864
0.000190288
0.000194222
0.000198722
0.000203847
0.000209664
0.000216242
0.000223655
0.000231974
0.000241202
0.000250976
0.000260131
0.000273862
5441.66
-513.626
-463.807
-150.376
-4.38382
52.5507
76.0499
87.4385
93.7237
97.1076
98.3287
97.7197
95.5213
91.9676
87.3019
81.7729
75.6261
69.0944
62.3907
55.7025
49.1875
42.9728
37.1542
31.7984
26.9453
22.6115
18.7943
15.4758
12.6265
10.2089
8.18111
6.49891
5.11827
3.99685
3.09513
2.37716
1.81097
1.36862
1.02619
0.763462
0.563657
0.413005
0.300371
0.216855
0.155432
0.110617
0.0781761
0.0548732
0.0382612
0.0265071
0.0182513
0.0124945
0.0085089
0.00576879
0.00389798
0.00262937
0.00177487
0.00120311
0.000823017
0.000571969
0.000407201
0.000299738
0.000230082
0.000185209
0.000156479
0.000138199
0.000126642
0.000119386
0.000114869
0.000112088
0.000110405
0.000109416
0.000108872
0.000108617
0.000108557
0.000108639
0.000108834
0.000109129
0.000109521
0.000110017
0.000110626
0.000111364
0.000112246
0.000113295
0.000114533
0.000115984
0.000117678
0.000119642
0.000121911
0.000124518
0.000127501
0.0001309
0.000134759
0.000139124
0.000144047
0.000149574
0.000155711
0.000162232
0.000168394
0.000177456
5441.66
-513.625
-463.806
-150.375
-4.38302
52.5516
76.0509
87.4397
93.725
97.1089
98.3301
97.7211
95.5227
91.969
87.3032
81.7742
75.6273
69.0955
62.3918
55.7035
49.1884
42.9736
37.1549
31.7991
26.9458
22.612
18.7948
15.4762
12.6268
10.2092
8.18131
6.49906
5.11839
3.99694
3.09519
2.37721
1.81099
1.36863
1.02619
0.763454
0.563642
0.412985
0.300346
0.216826
0.1554
0.110584
0.0781412
0.0548371
0.0382242
0.0264694
0.0182132
0.0124561
0.00847023
0.00572995
0.00385901
0.00259031
0.00173575
0.00116394
0.000783816
0.000532746
0.000367962
0.000260487
0.000190821
0.000145941
0.000117203
9.89131e-05
8.73457e-05
8.00779e-05
7.55452e-05
7.27442e-05
7.10357e-05
7.00157e-05
6.94313e-05
6.91255e-05
6.90027e-05
6.90064e-05
6.91043e-05
6.92801e-05
6.95276e-05
6.98473e-05
7.02443e-05
7.07269e-05
7.13063e-05
7.19954e-05
7.28092e-05
7.37641e-05
7.48784e-05
7.61716e-05
7.76652e-05
7.93821e-05
8.13471e-05
8.35871e-05
8.61313e-05
8.90107e-05
9.22589e-05
9.59083e-05
9.99648e-05
0.000104288
0.000108406
0.000114352
5441.66
-513.625
-463.806
-150.374
-4.38197
52.5529
76.0523
87.4413
93.7267
97.1106
98.3319
97.7229
95.5245
91.9708
87.305
81.776
75.629
69.0971
62.3932
55.7048
49.1896
42.9747
37.1559
31.7999
26.9466
22.6126
18.7953
15.4767
12.6272
10.2095
8.18159
6.49929
5.11857
3.99708
3.0953
2.37729
1.81106
1.36868
1.02622
0.763471
0.563649
0.412984
0.300339
0.216815
0.155386
0.110566
0.0781218
0.0548162
0.0382021
0.0264465
0.0181896
0.0124321
0.00844588
0.00570536
0.00383426
0.00256543
0.00171078
0.00113892
0.000758756
0.000507656
0.000342853
0.000235363
0.000165687
0.000120797
9.2052e-05
7.37554e-05
6.21804e-05
5.49037e-05
5.03602e-05
4.75458e-05
4.58204e-05
4.47792e-05
4.41678e-05
4.38284e-05
4.36636e-05
4.36151e-05
4.36486e-05
4.37453e-05
4.38963e-05
4.40988e-05
4.43546e-05
4.46679e-05
4.50454e-05
4.54952e-05
4.60269e-05
4.66512e-05
4.73799e-05
4.82259e-05
4.92033e-05
5.03271e-05
5.16137e-05
5.30809e-05
5.4748e-05
5.66356e-05
5.8766e-05
6.11608e-05
6.38255e-05
6.66734e-05
6.94077e-05
7.32872e-05
5441.66
-513.625
-463.805
-150.373
-4.38063
52.5545
76.0542
87.4433
93.7288
97.1129
98.3342
97.7253
95.527
91.9732
87.3073
81.7782
75.6311
69.0991
62.3951
55.7065
49.1912
42.9762
37.1572
31.8011
26.9476
22.6135
18.7961
15.4773
12.6277
10.21
8.18198
6.49961
5.11883
3.99729
3.09547
2.37742
1.81115
1.36875
1.02627
0.76351
0.563675
0.413001
0.300348
0.216818
0.155384
0.110561
0.0781134
0.0548058
0.0381901
0.0264334
0.0181757
0.0124176
0.00843092
0.00569009
0.00381876
0.00254978
0.00169502
0.00112308
0.00074286
0.000491723
0.000326893
0.000219385
0.000149696
0.000104798
7.60448e-05
5.77418e-05
4.61606e-05
3.88773e-05
3.43262e-05
3.15025e-05
2.97658e-05
2.87103e-05
2.80812e-05
2.77194e-05
2.75268e-05
2.74438e-05
2.74346e-05
2.74791e-05
2.75662e-05
2.76914e-05
2.78538e-05
2.80552e-05
2.82992e-05
2.85908e-05
2.89359e-05
2.93415e-05
2.98152e-05
3.03653e-05
3.1001e-05
3.17322e-05
3.25695e-05
3.35248e-05
3.46106e-05
3.58405e-05
3.72294e-05
3.87915e-05
4.05313e-05
4.23958e-05
4.41992e-05
4.67162e-05
5441.66
-513.624
-463.804
-150.372
-4.3789
52.5565
76.0565
87.4458
93.7316
97.1158
98.3373
97.7284
95.53
91.9762
87.3104
81.7811
75.6339
69.1017
62.3976
55.7088
49.1933
42.9781
37.1589
31.8026
26.949
22.6147
18.7971
15.4782
12.6285
10.2106
8.18249
6.50004
5.11918
3.99757
3.0957
2.3776
1.8113
1.36886
1.02635
0.763572
0.563721
0.413033
0.30037
0.216832
0.155392
0.110564
0.0781133
0.0548029
0.0381853
0.0264271
0.0181683
0.0124094
0.00842217
0.00568093
0.0038093
0.00254011
0.00168521
0.00111316
0.000732876
0.00048169
0.000316827
0.000209296
0.000139591
9.46809e-05
6.59197e-05
4.76102e-05
3.60235e-05
2.87349e-05
2.41781e-05
2.1348e-05
1.96035e-05
1.85385e-05
1.78976e-05
1.75211e-05
1.73102e-05
1.72044e-05
1.71673e-05
1.71773e-05
1.72226e-05
1.72969e-05
1.7398e-05
1.75258e-05
1.76822e-05
1.78698e-05
1.80924e-05
1.83543e-05
1.86603e-05
1.90158e-05
1.94268e-05
1.98997e-05
2.04415e-05
2.10597e-05
2.17627e-05
2.25594e-05
2.34594e-05
2.44723e-05
2.56015e-05
2.68148e-05
2.79965e-05
2.96205e-05
5441.66
-513.623
-463.803
-150.37
-4.37673
52.5591
76.0594
87.4491
93.7351
97.1195
98.3411
97.7323
95.534
91.9802
87.3142
81.7848
75.6375
69.1051
62.4008
55.7118
49.196
42.9805
37.1612
31.8046
26.9507
22.6162
18.7984
15.4793
12.6295
10.2114
8.18318
6.5006
5.11964
3.99795
3.096
2.37784
1.81149
1.36901
1.02647
0.763661
0.563788
0.413083
0.300406
0.216858
0.155409
0.110576
0.07812
0.0548061
0.0381859
0.0264258
0.0181656
0.0124056
0.0084176
0.00567581
0.00380381
0.00253435
0.00167925
0.00110707
0.000726694
0.000475445
0.000310538
0.000202977
0.000133252
8.83276e-05
5.95565e-05
4.12399e-05
2.96476e-05
2.23543e-05
1.7793e-05
1.49582e-05
1.32083e-05
1.21369e-05
1.14881e-05
1.11018e-05
1.08789e-05
1.07583e-05
1.07028e-05
1.06905e-05
1.07084e-05
1.07495e-05
1.08105e-05
1.08904e-05
1.09894e-05
1.11092e-05
1.12517e-05
1.14197e-05
1.16162e-05
1.18447e-05
1.21088e-05
1.24129e-05
1.27613e-05
1.31591e-05
1.36116e-05
1.41246e-05
1.47044e-05
1.53574e-05
1.6086e-05
1.68708e-05
1.76403e-05
1.86824e-05
5441.66
-513.622
-463.801
-150.368
-4.37402
52.5623
76.0631
87.4532
93.7395
97.1242
98.3459
97.7373
95.539
91.9851
87.3191
81.7896
75.642
69.1094
62.4048
55.7155
49.1995
42.9837
37.164
31.8071
26.9529
22.6182
18.8001
15.4808
12.6307
10.2125
8.18406
6.50133
5.12025
3.99844
3.0964
2.37816
1.81174
1.36921
1.02662
0.76378
0.563879
0.413152
0.300458
0.216895
0.155436
0.110595
0.078133
0.0548146
0.0381909
0.0264283
0.0181662
0.0124049
0.00841595
0.00567347
0.00380096
0.00253115
0.00167581
0.00110346
0.000722957
0.000471625
0.000306662
0.000199063
0.000129311
8.43693e-05
5.55861e-05
3.7261e-05
2.56626e-05
1.83646e-05
1.37993e-05
1.09607e-05
9.20688e-06
8.13102e-06
7.47692e-06
7.08429e-06
6.85351e-06
6.72319e-06
6.65584e-06
6.62888e-06
6.62899e-06
6.64858e-06
6.68362e-06
6.73231e-06
6.79425e-06
6.86996e-06
6.96056e-06
7.06761e-06
7.193e-06
7.33888e-06
7.50768e-06
7.70203e-06
7.92485e-06
8.17931e-06
8.46888e-06
8.79734e-06
9.16875e-06
9.58724e-06
1.00547e-05
1.05593e-05
1.10572e-05
1.17223e-05
5441.66
-513.621
-463.799
-150.365
-4.37067
52.5663
76.0676
87.4582
93.7449
97.1299
98.3519
97.7434
95.5452
91.9913
87.3252
81.7955
75.6477
69.1148
62.4099
55.7203
49.2039
42.9876
37.1676
31.8103
26.9558
22.6207
18.8023
15.4827
12.6323
10.2138
8.18519
6.50227
5.12102
3.99907
3.09691
2.37857
1.81207
1.36947
1.02683
0.763936
0.563999
0.413243
0.300526
0.216946
0.155474
0.110622
0.0781524
0.0548281
0.0382001
0.0264342
0.0181698
0.0124067
0.00841649
0.0056731
0.00379996
0.00252969
0.00167403
0.00110145
0.0007208
0.000469362
0.000304326
0.000196678
0.000126893
8.19284e-05
5.313e-05
3.47946e-05
2.3189e-05
1.58858e-05
1.13167e-05
8.47475e-06
6.7178e-06
5.6387e-06
4.98097e-06
4.58405e-06
4.34811e-06
4.21148e-06
4.13641e-06
4.10002e-06
4.08866e-06
4.09434e-06
4.11262e-06
4.14122e-06
4.1792e-06
4.22649e-06
4.28358e-06
4.35132e-06
4.43082e-06
4.52343e-06
4.63066e-06
4.75418e-06
4.89584e-06
5.0577e-06
5.24196e-06
5.45105e-06
5.68761e-06
5.95431e-06
6.25245e-06
6.5751e-06
6.89533e-06
7.31757e-06
5441.66
-513.62
-463.797
-150.362
-4.36658
52.5711
76.0732
87.4643
93.7516
97.137
98.3593
97.751
95.5529
91.999
87.3327
81.8029
75.6548
69.1216
62.4163
55.7262
49.2093
42.9926
37.1721
31.8144
26.9594
22.6238
18.8051
15.4851
12.6343
10.2155
8.18664
6.50347
5.12201
3.99988
3.09756
2.3791
1.81249
1.3698
1.02709
0.764138
0.564154
0.413361
0.300616
0.217013
0.155524
0.110658
0.078179
0.0548471
0.0382135
0.0264434
0.0181759
0.0124106
0.00841882
0.00567428
0.00380031
0.00252946
0.00167339
0.00110053
0.000719681
0.000468107
0.000302979
0.000195267
0.000125439
8.04463e-05
5.16287e-05
3.32804e-05
2.16661e-05
1.4357e-05
9.78353e-06
6.93835e-06
5.17868e-06
4.09704e-06
3.43668e-06
3.03683e-06
2.79745e-06
2.6567e-06
2.57664e-06
2.53419e-06
2.51545e-06
2.5122e-06
2.51973e-06
2.53544e-06
2.55806e-06
2.58713e-06
2.62273e-06
2.66525e-06
2.71532e-06
2.77375e-06
2.84147e-06
2.91952e-06
3.00908e-06
3.11145e-06
3.22804e-06
3.3604e-06
3.51023e-06
3.67924e-06
3.86835e-06
4.07345e-06
4.27817e-06
4.54482e-06
5441.66
-513.618
-463.794
-150.358
-4.36167
52.577
76.0799
87.4718
93.7597
97.1456
98.3683
97.7603
95.5622
92.0084
87.342
81.8119
75.6636
69.13
62.4242
55.7336
49.2162
42.9989
37.1778
31.8195
26.9639
22.6278
18.8085
15.4881
12.6369
10.2177
8.18846
6.50499
5.12326
4.00091
3.0984
2.37977
1.81302
1.37022
1.02742
0.764395
0.564352
0.413513
0.30073
0.2171
0.155588
0.110706
0.0782138
0.0548724
0.0382315
0.0264562
0.0181848
0.0124167
0.00842281
0.0056768
0.00380178
0.00253018
0.00167359
0.00110037
0.000719268
0.000467521
0.000302274
0.000194481
0.0001246
7.95702e-05
5.07283e-05
3.23638e-05
2.07388e-05
1.34224e-05
8.844e-06
5.99531e-06
4.23299e-06
3.14914e-06
2.48674e-06
2.08478e-06
1.84306e-06
1.6996e-06
1.6163e-06
1.56994e-06
1.54647e-06
1.53753e-06
1.5382e-06
1.54569e-06
1.55851e-06
1.57596e-06
1.59786e-06
1.6243e-06
1.65561e-06
1.69224e-06
1.73474e-06
1.78378e-06
1.84009e-06
1.90447e-06
1.97783e-06
2.06116e-06
2.15553e-06
2.26204e-06
2.38133e-06
2.51098e-06
2.64109e-06
2.8086e-06
5441.66
-513.616
-463.791
-150.353
-4.35583
52.584
76.0879
87.4807
93.7694
97.156
98.3791
97.7714
95.5736
92.0198
87.3533
81.823
75.6743
69.1402
62.4339
55.7427
49.2246
43.0066
37.1848
31.8258
26.9695
22.6328
18.8129
15.4918
12.6401
10.2204
8.19074
6.5069
5.12484
4.0022
3.09944
2.38061
1.81369
1.37075
1.02783
0.764719
0.564603
0.413705
0.300876
0.21721
0.15567
0.110767
0.0782585
0.0549049
0.038255
0.026473
0.0181967
0.0124249
0.00842847
0.0056806
0.00380425
0.00253172
0.00167447
0.00110078
0.000719362
0.000467396
0.000301999
0.000194105
0.000124155
7.90795e-05
5.02069e-05
3.18221e-05
2.01836e-05
1.28583e-05
8.274e-06
5.42128e-06
3.65611e-06
2.57013e-06
1.90595e-06
1.50237e-06
1.25898e-06
1.11368e-06
1.02826e-06
9.79372e-07
9.52888e-07
9.40315e-07
9.36623e-07
9.38897e-07
9.45505e-07
9.55598e-07
9.68808e-07
9.85059e-07
1.00447e-06
1.02727e-06
1.05379e-06
1.08442e-06
1.11962e-06
1.15989e-06
1.2058e-06
1.25797e-06
1.31708e-06
1.38385e-06
1.45868e-06
1.54018e-06
1.6224e-06
1.72709e-06
5441.66
-513.614
-463.787
-150.348
-4.34899
52.5921
76.0973
87.4912
93.7808
97.1682
98.392
97.7847
95.5872
92.0334
87.3669
81.8363
75.6872
69.1526
62.4457
55.7537
49.2349
43.0161
37.1934
31.8335
26.9764
22.6389
18.8182
15.4964
12.6441
10.2238
8.19359
6.50927
5.1268
4.00381
3.10075
2.38166
1.81453
1.37142
1.02836
0.765127
0.564918
0.413946
0.30106
0.217348
0.155774
0.110844
0.078315
0.0549462
0.038285
0.0264944
0.0182119
0.0124357
0.00843598
0.00568576
0.00380774
0.00253402
0.00167594
0.00110168
0.000719856
0.000467614
0.000302029
0.000194007
0.000123971
7.88379e-05
4.99269e-05
3.15166e-05
1.98613e-05
1.2525e-05
7.93338e-06
5.07584e-06
3.30742e-06
2.21916e-06
1.55328e-06
1.14829e-06
9.03624e-07
7.57018e-07
6.70162e-07
6.19635e-07
5.91214e-07
5.76332e-07
5.69882e-07
5.68862e-07
5.7155e-07
5.77e-07
5.84734e-07
5.9456e-07
6.06466e-07
6.2055e-07
6.36988e-07
6.56008e-07
6.77886e-07
7.02936e-07
7.31509e-07
7.63997e-07
8.00829e-07
8.42451e-07
8.89144e-07
9.40102e-07
9.91758e-07
1.05686e-06
5441.66
-513.611
-463.782
-150.342
-4.34111
52.6016
76.1082
87.5034
93.7942
97.1825
98.4071
97.8004
95.6032
92.0496
87.383
81.8523
75.7027
69.1676
62.4599
55.7671
49.2474
43.0276
37.2039
31.843
26.9849
22.6464
18.8248
15.5021
12.649
10.228
8.19711
6.51221
5.12924
4.0058
3.10238
2.38297
1.81558
1.37225
1.02901
0.765636
0.565311
0.414247
0.301289
0.217521
0.155903
0.11094
0.0783859
0.0549981
0.0383226
0.0265215
0.0182313
0.0124494
0.00844559
0.00569243
0.00381232
0.00253713
0.00167801
0.00110302
0.000720701
0.000468114
0.000302294
0.000194112
0.000123968
7.8763e-05
4.9804e-05
3.13619e-05
1.96857e-05
1.23356e-05
7.73511e-06
4.87171e-06
3.09943e-06
2.00858e-06
1.34089e-06
9.34567e-07
6.88805e-07
5.41199e-07
4.53334e-07
4.01708e-07
3.7203e-07
3.55676e-07
3.47481e-07
3.44387e-07
3.44614e-07
3.47151e-07
3.51451e-07
3.57249e-07
3.64451e-07
3.73069e-07
3.83184e-07
3.94921e-07
4.08442e-07
4.23937e-07
4.41625e-07
4.61748e-07
4.84574e-07
5.10385e-07
5.39366e-07
5.71055e-07
6.03329e-07
6.43604e-07
5441.66
-513.608
-463.777
-150.335
-4.33219
52.6123
76.1206
87.5173
93.8095
97.199
98.4246
97.8186
95.622
92.0686
87.4021
81.8711
75.7211
69.1853
62.4769
55.7832
49.2623
43.0414
37.2166
31.8545
26.9952
22.6555
18.8328
15.5091
12.655
10.2331
8.20142
6.51582
5.13223
4.00826
3.10438
2.38459
1.81687
1.37327
1.02982
0.766265
0.565798
0.414621
0.301573
0.217735
0.156064
0.111059
0.078474
0.0550626
0.0383694
0.0265553
0.0182554
0.0124666
0.00845766
0.00570087
0.00381816
0.00254113
0.00168072
0.00110483
0.000721888
0.000468873
0.000302759
0.000194379
0.000124101
7.88065e-05
4.97879e-05
3.13064e-05
1.96042e-05
1.22372e-05
7.62563e-06
4.75505e-06
2.9781e-06
1.88419e-06
1.21447e-06
8.06731e-07
5.59925e-07
4.11472e-07
3.22839e-07
2.70441e-07
2.39927e-07
2.22623e-07
2.13321e-07
2.08924e-07
2.0761e-07
2.08327e-07
2.10484e-07
2.1377e-07
2.18039e-07
2.23249e-07
2.29419e-07
2.36612e-07
2.44918e-07
2.5445e-07
2.6534e-07
2.77738e-07
2.9181e-07
3.07733e-07
3.25626e-07
3.45228e-07
3.65283e-07
3.90076e-07
5441.66
-513.604
-463.772
-150.327
-4.32229
52.6243
76.1345
87.533
93.8268
97.2177
98.4445
97.8395
95.6435
92.0906
87.4242
81.8931
75.7427
69.2063
62.497
55.8022
49.2802
43.058
37.2317
31.8683
27.0076
22.6665
18.8424
15.5175
12.6622
10.2393
8.20667
6.52022
5.13588
4.01127
3.10683
2.38657
1.81846
1.37453
1.03081
0.767038
0.566396
0.41508
0.301923
0.218
0.156262
0.111207
0.0785828
0.0551422
0.0384273
0.0265971
0.0182854
0.0124878
0.00847266
0.00571136
0.00382545
0.00254615
0.00168415
0.00110715
0.000723436
0.000469891
0.000303416
0.000194791
0.000124348
7.89421e-05
4.98498e-05
3.13196e-05
1.95854e-05
1.21975e-05
7.57231e-06
4.69293e-06
2.9103e-06
1.81272e-06
1.14061e-06
7.31281e-07
4.83383e-07
3.34127e-07
2.44845e-07
1.91863e-07
1.60766e-07
1.42834e-07
1.32822e-07
1.27603e-07
1.25325e-07
1.24908e-07
1.25734e-07
1.27461e-07
1.2991e-07
1.33006e-07
1.3673e-07
1.41104e-07
1.46173e-07
1.52003e-07
1.58671e-07
1.66269e-07
1.74899e-07
1.8467e-07
1.95661e-07
2.07723e-07
2.20117e-07
2.35306e-07
5441.66
-513.601
-463.766
-150.319
-4.31155
52.6373
76.1497
87.5503
93.8459
97.2386
98.4668
97.8631
95.668
92.1157
87.4496
81.9184
75.7677
69.2307
62.5205
55.8246
49.3012
43.0776
37.2498
31.8847
27.0223
22.6797
18.8541
15.5276
12.671
10.2468
8.21303
6.52556
5.14032
4.01492
3.10981
2.38898
1.82039
1.37607
1.03202
0.767983
0.567128
0.415643
0.302352
0.218324
0.156505
0.111387
0.0787161
0.0552399
0.0384984
0.0266483
0.0183221
0.0125139
0.00849111
0.00572429
0.00383445
0.00255237
0.00168841
0.00111004
0.000725384
0.00047119
0.000304271
0.000195345
0.000124699
7.91571e-05
4.99744e-05
3.13844e-05
1.9611e-05
1.21974e-05
7.55561e-06
4.66547e-06
2.87592e-06
1.77389e-06
1.09892e-06
6.87744e-07
4.38626e-07
2.88534e-07
1.98642e-07
1.4517e-07
1.13634e-07
9.52653e-08
8.47866e-08
7.90421e-08
7.61593e-08
7.50378e-08
7.50393e-08
7.5802e-08
7.71283e-08
7.89189e-08
8.11334e-08
8.37672e-08
8.68388e-08
9.03821e-08
9.44424e-08
9.90739e-08
1.04339e-07
1.10305e-07
1.17021e-07
1.24406e-07
1.32025e-07
1.41284e-07
5441.67
-513.597
-463.759
-150.31
-4.30023
52.6511
76.1659
87.5688
93.8667
97.2614
98.4915
97.8893
95.6954
92.144
87.4784
81.9474
75.7965
69.2588
62.5477
55.8506
49.3258
43.1006
37.271
31.904
27.0399
22.6953
18.8679
15.5397
12.6815
10.2558
8.22066
6.53197
5.14566
4.01933
3.11341
2.39189
1.82273
1.37793
1.03348
0.769129
0.568017
0.416325
0.302872
0.218717
0.1568
0.111607
0.0788785
0.0553589
0.0385849
0.0267109
0.0183669
0.0125458
0.00851364
0.0057401
0.00384546
0.00255998
0.00169363
0.0011136
0.000727791
0.000472804
0.000305343
0.000196049
0.000125156
7.94483e-05
5.01553e-05
3.14924e-05
1.96711e-05
1.22262e-05
7.5641e-06
4.66086e-06
2.86289e-06
1.75547e-06
1.07707e-06
6.63696e-07
4.13165e-07
2.62147e-07
1.71624e-07
1.17692e-07
8.57895e-08
6.70943e-08
5.62931e-08
5.0205e-08
4.69383e-08
4.53767e-08
4.48679e-08
4.50368e-08
4.56724e-08
4.66615e-08
4.7949e-08
4.95145e-08
5.13592e-08
5.34982e-08
5.59559e-08
5.87638e-08
6.19593e-08
6.55831e-08
6.96666e-08
7.41644e-08
7.88235e-08
8.44415e-08
5441.67
-513.593
-463.753
-150.301
-4.28871
52.6652
76.1827
87.5883
93.8887
97.2858
98.5181
97.9178
95.7256
92.1754
87.5106
81.98
75.829
69.2909
62.5789
55.8806
49.3543
43.1273
37.2958
31.9268
27.0604
22.7137
18.8842
15.5541
12.6939
10.2665
8.22975
6.53963
5.15204
4.0246
3.11772
2.39539
1.82554
1.38017
1.03525
0.770511
0.569088
0.41715
0.303501
0.219193
0.157158
0.111873
0.0790751
0.0555031
0.0386898
0.0267866
0.0184212
0.0125845
0.00854096
0.00575927
0.00385882
0.00256922
0.00169998
0.00111794
0.000730727
0.000474778
0.000306661
0.000196921
0.000125727
7.98186e-05
5.03917e-05
3.16404e-05
1.9761e-05
1.22782e-05
7.59143e-06
4.6723e-06
2.86414e-06
1.75021e-06
1.06767e-06
6.51671e-07
3.9947e-07
2.47384e-07
1.56164e-07
1.0176e-07
6.95164e-08
5.05501e-08
3.95086e-08
3.31847e-08
2.9668e-08
2.78284e-08
2.70027e-08
2.6806e-08
2.70182e-08
2.7517e-08
2.82379e-08
2.91507e-08
3.02458e-08
3.15266e-08
3.30047e-08
3.46974e-08
3.66265e-08
3.88164e-08
4.12867e-08
4.40125e-08
4.68469e-08
5.02393e-08
5441.67
-513.59
-463.747
-150.292
-4.27753
52.6792
76.1995
87.608
93.9113
97.3112
98.5461
97.9482
95.7581
92.2096
87.546
82.0161
75.8654
69.327
62.6143
55.9149
49.387
43.1581
37.3245
31.9531
27.0844
22.7353
18.9034
15.571
12.7086
10.2791
8.24052
6.54871
5.15963
4.03088
3.12287
2.39957
1.8289
1.38284
1.03736
0.772166
0.570373
0.418139
0.304256
0.219765
0.157587
0.112193
0.0793115
0.0556765
0.0388161
0.0268778
0.0184867
0.0126311
0.0085739
0.00578239
0.00387493
0.00258038
0.00170765
0.00112317
0.000734278
0.000477169
0.00030826
0.000197983
0.000126426
8.02751e-05
5.06869e-05
3.18289e-05
1.98794e-05
1.23508e-05
7.63439e-06
4.6961e-06
2.87565e-06
1.75389e-06
1.06637e-06
6.47227e-07
3.93042e-07
2.39701e-07
1.47683e-07
9.27611e-08
6.01681e-08
4.09507e-08
2.97109e-08
2.32121e-08
1.95246e-08
1.7505e-08
1.64802e-08
1.60575e-08
1.60103e-08
1.621e-08
1.6586e-08
1.71019e-08
1.77413e-08
1.85002e-08
1.93825e-08
2.03966e-08
2.15548e-08
2.28714e-08
2.43583e-08
2.6002e-08
2.77175e-08
2.97564e-08
5441.67
-513.587
-463.742
-150.285
-4.26742
52.6921
76.2154
87.627
93.9336
97.3368
98.5748
97.9799
95.7924
92.2462
87.5844
82.0557
75.9056
69.3673
62.6541
55.9535
49.4241
43.1933
37.3574
31.9836
27.1122
22.7604
18.9258
15.5907
12.7258
10.2939
8.25319
6.55942
5.16859
4.0383
3.12896
2.40452
1.83288
1.38602
1.03988
0.774136
0.571903
0.419318
0.305156
0.220447
0.158099
0.112575
0.0795941
0.0558838
0.0389671
0.026987
0.018565
0.0126869
0.00861334
0.00581009
0.00389424
0.00259375
0.00171685
0.00112946
0.00073854
0.000480042
0.000310183
0.000199261
0.00012727
8.08285e-05
5.10467e-05
3.20607e-05
2.00272e-05
1.24438e-05
7.69173e-06
4.73048e-06
2.89531e-06
1.76416e-06
1.07068e-06
6.47775e-07
3.91225e-07
2.36401e-07
1.4345e-07
8.79383e-08
5.49643e-08
3.54915e-08
2.40689e-08
1.74265e-08
1.36131e-08
1.14711e-08
1.0318e-08
9.75404e-09
9.54729e-09
9.56467e-09
9.73133e-09
1.00067e-08
1.03702e-08
1.08134e-08
1.13351e-08
1.19384e-08
1.26297e-08
1.3417e-08
1.43075e-08
1.52937e-08
1.63268e-08
1.75465e-08
5441.67
-513.584
-463.738
-150.279
-4.2593
52.7028
76.2292
87.6442
93.9544
97.3613
98.6032
98.0119
95.8278
92.2845
87.6252
82.0984
75.9494
69.4116
62.6981
55.9967
49.4659
43.2331
37.3948
32.0183
27.1441
22.7892
18.9516
15.6135
12.7458
10.3112
8.26798
6.57195
5.17909
4.04701
3.13612
2.41034
1.83758
1.38977
1.04285
0.776465
0.573715
0.420714
0.306224
0.221256
0.158708
0.113029
0.0799297
0.0561303
0.0391466
0.0271168
0.0186582
0.0127533
0.0086603
0.00584307
0.00391724
0.00260968
0.00172781
0.00113694
0.000743622
0.000483469
0.000312478
0.000200789
0.00012828
8.14916e-05
5.14791e-05
3.23406e-05
2.02069e-05
1.2558e-05
7.76351e-06
4.77488e-06
2.92215e-06
1.7798e-06
1.07923e-06
6.51845e-07
3.92485e-07
2.35903e-07
1.41856e-07
8.56586e-08
5.22529e-08
3.25029e-08
2.08955e-08
1.41214e-08
1.02051e-08
7.97327e-09
6.73336e-09
6.07883e-09
5.77284e-09
5.67864e-09
5.71828e-09
5.84834e-09
6.04554e-09
6.29852e-09
6.60294e-09
6.95877e-09
7.36863e-09
7.83682e-09
8.36733e-09
8.95609e-09
9.57513e-09
1.03014e-08
5441.67
-513.584
-463.736
-150.276
-4.25433
52.7102
76.2395
87.658
93.9722
97.3835
98.6298
98.043
95.8631
92.3237
87.6677
82.1435
75.9964
69.4597
62.7464
56.0445
49.5125
43.2777
37.4371
32.0577
27.1804
22.8222
18.9812
15.6398
12.7688
10.3312
8.28514
6.58651
5.19132
4.05718
3.14448
2.41716
1.84308
1.39417
1.04633
0.779203
0.575845
0.422357
0.307481
0.22221
0.159425
0.113564
0.0803261
0.0564214
0.0393588
0.0272703
0.0187683
0.0128318
0.00871587
0.00588211
0.00394448
0.00262855
0.00174079
0.00114582
0.000749646
0.000487532
0.000315201
0.000202601
0.000129479
8.22797e-05
5.19937e-05
3.26744e-05
2.04219e-05
1.26955e-05
7.85061e-06
4.82951e-06
2.95595e-06
1.80033e-06
1.09134e-06
6.58652e-07
3.95964e-07
2.37305e-07
1.41965e-07
8.49653e-08
5.10608e-08
3.09983e-08
1.91913e-08
1.22847e-08
8.27455e-09
5.96976e-09
4.66646e-09
3.95095e-09
3.58161e-09
3.41832e-09
3.38061e-09
3.42293e-09
3.52011e-09
3.65891e-09
3.83306e-09
4.04046e-09
4.28153e-09
4.55818e-09
4.87252e-09
5.22223e-09
5.59129e-09
6.02182e-09
5441.67
-513.584
-463.737
-150.277
-4.25393
52.7125
76.2446
87.6668
93.9853
97.4015
98.653
98.0716
95.897
92.3625
87.7108
82.1903
76.046
69.5111
62.7988
56.0968
49.5638
43.3274
37.4843
32.1021
27.2214
22.8597
19.015
15.6699
12.7953
10.3542
8.30492
6.60333
5.20548
4.06897
3.1542
2.42509
1.84949
1.3993
1.0504
0.782401
0.578336
0.424281
0.308953
0.223327
0.160266
0.114192
0.0807913
0.0567633
0.0396081
0.0274507
0.0188979
0.0129242
0.00878125
0.00592805
0.00397654
0.00265076
0.00175608
0.00115627
0.000756744
0.00049232
0.000318411
0.000204739
0.000130894
8.321e-05
5.26017e-05
3.30692e-05
2.06766e-05
1.28587e-05
7.95449e-06
4.89508e-06
2.99696e-06
1.82568e-06
1.10677e-06
6.67823e-07
4.01213e-07
2.40106e-07
1.43247e-07
8.53067e-08
5.08216e-08
3.03999e-08
1.8369e-08
1.13201e-08
7.21597e-09
4.84494e-09
3.49035e-09
2.73054e-09
2.31876e-09
2.11157e-09
2.02619e-09
2.01532e-09
2.05238e-09
2.12283e-09
2.21914e-09
2.33792e-09
2.4782e-09
2.64045e-09
2.82559e-09
3.03221e-09
3.25112e-09
3.50515e-09
5441.67
-513.588
-463.742
-150.282
-4.25973
52.708
76.2425
87.6683
93.9914
97.4131
98.6708
98.0958
95.9277
92.3994
87.7534
82.2377
76.0974
69.5653
62.8548
56.1534
49.6199
43.3821
37.5368
32.1516
27.2674
22.9019
19.0532
15.704
12.8254
10.3805
8.32758
6.62265
5.22176
4.08255
3.16541
2.43426
1.85691
1.40525
1.05512
0.786114
0.581231
0.426518
0.310667
0.224629
0.161247
0.114925
0.0813342
0.0571624
0.0398993
0.0276615
0.0190494
0.0130322
0.00885773
0.00598181
0.00401406
0.00267677
0.00177398
0.00116851
0.00076506
0.000497932
0.000322173
0.000207246
0.000132553
8.43016e-05
5.33154e-05
3.35329e-05
2.0976e-05
1.30509e-05
8.07702e-06
4.97268e-06
3.04575e-06
1.8561e-06
1.12553e-06
6.79245e-07
4.08031e-07
2.44054e-07
1.45414e-07
8.63735e-08
5.12112e-08
3.03735e-08
1.80865e-08
1.08788e-08
6.67421e-09
4.23717e-09
2.83627e-09
2.04077e-09
1.59831e-09
1.36186e-09
1.24633e-09
1.20283e-09
1.20361e-09
1.23315e-09
1.28307e-09
1.34913e-09
1.42948e-09
1.52371e-09
1.63199e-09
1.75336e-09
1.88253e-09
2.03173e-09
5441.67
-513.594
-463.752
-150.295
-4.27363
52.6943
76.2308
87.66
93.9882
97.416
98.6809
98.1136
95.9533
92.4328
87.7939
82.2846
76.1496
69.6217
62.9139
56.214
49.6807
43.4418
37.5945
32.2064
27.3188
22.9492
19.0962
15.7426
12.8596
10.4104
8.35338
6.64469
5.24038
4.09811
3.17828
2.44479
1.86544
1.4121
1.06056
0.790401
0.584576
0.429105
0.31265
0.226137
0.162383
0.115774
0.0819641
0.0576258
0.0402375
0.0279064
0.0192254
0.0131578
0.00894669
0.00604437
0.00405774
0.00270706
0.00179484
0.00118278
0.000774751
0.000504473
0.000326559
0.000210168
0.000134489
8.55751e-05
5.41483e-05
3.40744e-05
2.13259e-05
1.32755e-05
8.22043e-06
5.06366e-06
3.10309e-06
1.89198e-06
1.14782e-06
6.92961e-07
4.16372e-07
2.49043e-07
1.48324e-07
8.8001e-08
5.20501e-08
3.07295e-08
1.81473e-08
1.07589e-08
6.44268e-09
3.93539e-09
2.48856e-09
1.66099e-09
1.19392e-09
9.36398e-10
8.0086e-10
7.36829e-10
7.15449e-10
7.20418e-10
7.42699e-10
7.77464e-10
8.22316e-10
8.76271e-10
9.39023e-10
1.00984e-09
1.08563e-09
1.17286e-09
5441.66
-513.605
-463.768
-150.316
-4.29779
52.6692
76.2068
87.6393
93.9726
97.4074
98.6805
98.1223
95.9716
92.4605
87.8307
82.3295
76.2015
69.6791
62.9754
56.2781
49.7458
43.5065
37.6576
32.2668
27.3756
23.0019
19.1443
15.7859
12.898
10.4441
8.38258
6.66969
5.26154
4.11583
3.19296
2.45682
1.87521
1.41994
1.06681
0.795322
0.58842
0.432081
0.314933
0.227873
0.163693
0.116754
0.0826909
0.0581607
0.0406281
0.0281895
0.019429
0.0133031
0.00904963
0.00611677
0.00410831
0.00274213
0.001819
0.0011993
0.000785984
0.000512056
0.000331646
0.000213559
0.000136734
8.70532e-05
5.51153e-05
3.47031e-05
2.17323e-05
1.35367e-05
8.38721e-06
5.16956e-06
3.16992e-06
1.9339e-06
1.17394e-06
7.0912e-07
4.26284e-07
2.5506e-07
1.51925e-07
9.01109e-08
5.32446e-08
3.13643e-08
1.8441e-08
1.08451e-08
6.40241e-09
3.81744e-09
2.32194e-09
1.46269e-09
9.73598e-10
6.99265e-10
5.49385e-10
4.71785e-10
4.3652e-10
4.26549e-10
4.32297e-10
4.48498e-10
4.7237e-10
5.0256e-10
5.38462e-10
5.79439e-10
6.23622e-10
6.74365e-10
5441.66
-513.62
-463.793
-150.348
-4.33459
52.6298
76.1676
87.603
93.9417
97.3842
98.6667
98.1192
95.9799
92.4804
87.8617
82.3708
76.2517
69.7368
63.0387
56.3452
49.815
43.5761
37.726
32.3328
27.4381
23.0601
19.1977
15.8341
12.941
10.4819
8.41546
6.69791
5.28548
4.13591
3.20962
2.4705
1.88632
1.42888
1.07393
0.800942
0.592814
0.435485
0.317547
0.229863
0.165195
0.117878
0.0835252
0.0587751
0.0410769
0.0285149
0.019663
0.0134702
0.0091681
0.00620014
0.00416656
0.00278254
0.00184684
0.00121836
0.000798938
0.000520805
0.000337516
0.000217472
0.000139327
8.87602e-05
5.62323e-05
3.54297e-05
2.2202e-05
1.38386e-05
8.58016e-06
5.29213e-06
3.24734e-06
1.98252e-06
1.20429e-06
7.27941e-07
4.37879e-07
2.62148e-07
1.56217e-07
9.26778e-08
5.47523e-08
3.22248e-08
1.89079e-08
1.10732e-08
6.48599e-09
3.81336e-09
2.26425e-09
1.37157e-09
8.60817e-10
5.71496e-10
4.10219e-10
3.22936e-10
2.78538e-10
2.59245e-10
2.54985e-10
2.60129e-10
2.71606e-10
2.87808e-10
3.07929e-10
3.31359e-10
3.56915e-10
3.86277e-10
5441.65
-513.641
-463.826
-150.392
-4.3867
52.5732
76.11
87.5478
93.8922
97.3431
98.6364
98.1015
95.9757
92.4901
87.8849
82.4067
76.2989
69.7934
63.1029
56.4148
49.8879
43.6504
37.7997
32.4045
27.5064
23.1241
19.2567
15.8877
12.9889
10.5242
8.45229
6.72959
5.31242
4.15854
3.22843
2.48596
1.8989
1.43902
1.08201
0.807328
0.597811
0.439359
0.320525
0.232131
0.166908
0.119161
0.0844781
0.0594771
0.0415901
0.0288871
0.0199309
0.0136616
0.0093038
0.00629567
0.00423333
0.00282888
0.00187878
0.00124023
0.000813807
0.000530849
0.000344258
0.000221968
0.000142306
9.07223e-05
5.75166e-05
3.62653e-05
2.27425e-05
1.41861e-05
8.80229e-06
5.43332e-06
3.33657e-06
2.03859e-06
1.23931e-06
7.49699e-07
4.51313e-07
2.70389e-07
1.61236e-07
9.57082e-08
5.6562e-08
3.32888e-08
1.95183e-08
1.14091e-08
6.65627e-09
3.88379e-09
2.27441e-09
1.34504e-09
8.11514e-10
5.07501e-10
3.36104e-10
2.41156e-10
1.90268e-10
1.64871e-10
1.54393e-10
1.52872e-10
1.56996e-10
1.64967e-10
1.75835e-10
1.88985e-10
2.03608e-10
2.20492e-10
5441.64
-513.671
-463.873
-150.452
-4.4574
52.4961
76.0307
87.4704
93.8206
97.2809
98.5865
98.066
95.9562
92.487
87.8982
82.4354
76.3415
69.848
63.1671
56.4863
49.9642
43.7291
37.8788
32.4821
27.5809
23.1943
19.3217
15.9469
13.0421
10.5713
8.49337
6.76502
5.34259
4.18395
3.24957
2.50337
1.91309
1.45046
1.09115
0.814549
0.603467
0.443748
0.3239
0.234704
0.168852
0.120618
0.0855613
0.0602757
0.0421741
0.0293108
0.0202361
0.0138797
0.00945851
0.00640462
0.00430951
0.00288178
0.00191525
0.0012652
0.000830797
0.000542331
0.000351966
0.00022711
0.000145715
9.29681e-05
5.89871e-05
3.72223e-05
2.33617e-05
1.45843e-05
9.05695e-06
5.59524e-06
3.43894e-06
2.10294e-06
1.27955e-06
7.74713e-07
4.66776e-07
2.79892e-07
1.67041e-07
9.923e-08
5.86818e-08
3.4552e-08
2.02609e-08
1.18366e-08
6.89382e-09
4.00729e-09
2.32949e-09
1.359e-09
8.00556e-10
4.81147e-10
2.99861e-10
1.98128e-10
1.42122e-10
1.12405e-10
9.78725e-11
9.22291e-11
9.19392e-11
9.50481e-11
1.00491e-10
1.07633e-10
1.15863e-10
1.25494e-10
5441.63
-513.712
-463.937
-150.534
-4.55156
52.3938
75.9253
87.3668
93.7233
97.194
98.5136
98.0098
95.9186
92.4689
87.8995
82.4551
76.3781
69.8993
63.2305
56.5591
50.0435
43.8122
37.9633
32.5656
27.6617
23.2709
19.3929
16.0121
13.1008
10.6234
8.53901
6.80445
5.37625
4.21233
3.27324
2.52289
1.92901
1.46331
1.10142
0.82268
0.609841
0.448699
0.327711
0.237611
0.171051
0.122267
0.0867872
0.0611799
0.0428358
0.0297912
0.0205822
0.0141271
0.00963413
0.00652835
0.00439606
0.0029419
0.00195672
0.00129361
0.00085013
0.0005554
0.000360744
0.000232968
0.0001496
9.55281e-05
6.06639e-05
3.8314e-05
2.40682e-05
1.5039e-05
9.34777e-06
5.78022e-06
3.55593e-06
2.17653e-06
1.32558e-06
8.03347e-07
4.84492e-07
2.90792e-07
1.73709e-07
1.03286e-07
6.11328e-08
3.60223e-08
2.11349e-08
1.23498e-08
7.18977e-09
4.17288e-09
2.41714e-09
1.4001e-09
8.1381e-10
4.77598e-10
2.85975e-10
1.77632e-10
1.17109e-10
8.39961e-11
6.66057e-11
5.82852e-11
5.52765e-11
5.54786e-11
5.77301e-11
6.13611e-11
6.58612e-11
7.12921e-11
5441.6
-513.782
-464.035
-150.649
-4.67896
52.2588
75.7881
87.2323
93.5962
97.0787
98.4143
97.9299
95.8602
92.4332
87.8866
82.4641
76.4073
69.9462
63.2923
56.6326
50.1255
43.8996
38.0531
32.6553
27.7491
23.3541
19.4707
16.0836
13.1654
10.6809
8.58951
6.84819
5.41365
4.24393
3.29963
2.54468
1.9468
1.47769
1.11293
0.831797
0.616995
0.45426
0.331994
0.240881
0.173525
0.124123
0.0881688
0.0621996
0.0435823
0.0303335
0.0209731
0.0144067
0.00983267
0.00666831
0.004494
0.00300995
0.00200369
0.0013258
0.000872044
0.000570221
0.000370702
0.000239616
0.00015401
9.84357e-05
6.25691e-05
3.95549e-05
2.48716e-05
1.55561e-05
9.67872e-06
5.9908e-06
3.68918e-06
2.26038e-06
1.37805e-06
8.36006e-07
5.0471e-07
3.03242e-07
1.81334e-07
1.0793e-07
6.39452e-08
3.77151e-08
2.21468e-08
1.29497e-08
7.5415e-09
4.37581e-09
2.5312e-09
1.46126e-09
8.43514e-10
4.88563e-10
2.85683e-10
1.70444e-10
1.0553e-10
6.94291e-11
4.97996e-11
3.95988e-11
3.4832e-11
3.3251e-11
3.36021e-11
3.51744e-11
3.75006e-11
4.05062e-11
5441.54
-513.934
-464.223
-150.838
-4.86413
52.0752
75.608
87.059
93.4334
96.9306
98.2849
97.8228
95.778
92.3774
87.8574
82.4606
76.4276
69.9877
63.3518
56.7064
50.21
43.9912
38.1484
32.7513
27.8432
23.4444
19.5555
16.1618
13.2363
10.7442
8.6452
6.89653
5.45507
4.27898
3.32893
2.56891
1.96662
1.49373
1.12577
0.84198
0.624992
0.460481
0.33679
0.244545
0.1763
0.126207
0.0897198
0.063345
0.0444214
0.0309433
0.0214128
0.0147215
0.0100563
0.006826
0.00460441
0.00308671
0.00205668
0.00136214
0.000896793
0.000586966
0.000381958
0.000247134
0.000158999
0.000101727
6.47264e-05
4.09606e-05
2.57821e-05
1.61424e-05
1.00541e-05
6.22977e-06
3.84046e-06
2.35561e-06
1.43768e-06
8.73138e-07
5.27709e-07
3.17413e-07
1.90019e-07
1.13225e-07
6.71562e-08
3.96517e-08
2.33079e-08
1.36413e-08
7.95027e-09
4.61501e-09
2.66917e-09
1.53904e-09
8.85608e-10
5.09531e-10
2.94118e-10
1.71382e-10
1.01895e-10
6.28935e-11
4.1298e-11
2.96289e-11
2.36319e-11
2.09027e-11
2.00931e-11
2.04446e-11
2.14995e-11
2.31072e-11
5441.35
-514.38
-464.695
-151.227
-5.1751
51.8056
75.3624
86.8319
93.2242
96.7413
98.1187
97.6831
95.6676
92.2977
87.8087
82.4419
76.4368
70.0219
63.4073
56.7792
50.296
44.0863
38.2488
32.8535
27.9443
23.5418
19.6475
16.2469
13.3138
10.8135
8.70636
6.94972
5.50072
4.31768
3.36134
2.59574
1.98859
1.51153
1.14004
0.853306
0.633894
0.467413
0.342137
0.248633
0.179398
0.128534
0.091454
0.0646263
0.0453606
0.0316263
0.0219057
0.0150744
0.0103071
0.007003
0.00472841
0.00317296
0.00211626
0.00140301
0.000924643
0.000605818
0.000394636
0.000255606
0.000164625
0.000105439
6.71611e-05
4.25478e-05
2.68107e-05
1.68051e-05
1.04786e-05
6.50013e-06
4.01169e-06
2.46346e-06
1.50524e-06
9.15232e-07
5.53798e-07
3.33496e-07
1.99883e-07
1.19243e-07
7.08093e-08
4.18574e-08
2.46327e-08
1.44325e-08
8.41986e-09
4.89171e-09
2.83072e-09
1.63214e-09
9.3818e-10
5.38176e-10
3.08655e-10
1.77584e-10
1.03131e-10
6.11134e-11
3.76128e-11
2.46572e-11
1.77026e-11
1.41733e-11
1.26197e-11
1.22289e-11
1.25329e-11
1.33344e-11
5440.66
-515.873
-466.105
-152.21
-5.80397
51.3621
75.0051
86.5206
92.945
96.4912
97.8989
97.4962
95.5158
92.1825
87.7301
82.3988
76.4267
70.0415
63.4526
56.8458
50.379
44.1811
38.351
32.9592
28.0499
23.6447
19.7452
16.3379
13.397
10.8884
8.77259
7.00751
5.55046
4.35993
3.39681
2.62516
2.01272
1.5311
1.15576
0.865797
0.643725
0.475076
0.348055
0.253161
0.182833
0.131118
0.0933804
0.066051
0.0464057
0.0323869
0.0224549
0.015468
0.0105871
0.00720066
0.00486696
0.0032694
0.00218291
0.00144876
0.00095584
0.000626949
0.000408856
0.000265113
0.000170941
0.000109609
6.98981e-05
4.43331e-05
2.79683e-05
1.75513e-05
1.09568e-05
6.80492e-06
4.20484e-06
2.58519e-06
1.58154e-06
9.628e-07
5.83296e-07
3.51694e-07
2.11051e-07
1.26062e-07
7.49514e-08
4.43609e-08
2.6138e-08
1.5333e-08
8.95558e-09
5.20855e-09
3.01683e-09
1.74053e-09
1.00057e-09
5.73431e-10
3.27957e-10
1.87518e-10
1.07553e-10
6.22642e-11
3.67848e-11
2.25846e-11
1.4793e-11
1.06433e-11
8.57404e-12
7.71029e-12
7.56068e-12
7.89509e-12
5438.37
-520.784
-470.448
-154.938
-7.27227
50.5391
74.4502
86.072
92.5477
96.1313
97.5759
97.2129
95.2751
91.986
87.5781
82.2902
76.3591
70.0114
63.4556
56.8768
50.433
44.2527
38.4352
33.0512
28.1457
23.7407
19.8387
16.4265
13.4792
10.9632
8.83956
7.06647
5.6016
4.40369
3.43376
2.65597
2.03812
1.5518
1.17244
0.879105
0.654233
0.483292
0.354418
0.258044
0.186546
0.133916
0.0954714
0.0676005
0.0475444
0.0332171
0.0230554
0.0158991
0.0108942
0.00741778
0.00501937
0.00337562
0.00225642
0.00149929
0.000990331
0.000650337
0.000424612
0.000275659
0.000177955
0.000114245
7.29434e-05
4.63215e-05
2.92589e-05
1.8384e-05
1.1491e-05
7.14566e-06
4.42097e-06
2.72152e-06
1.66706e-06
1.01616e-06
6.16417e-07
3.72143e-07
2.23612e-07
1.33738e-07
7.96185e-08
4.71844e-08
2.78377e-08
1.6351e-08
9.56222e-09
5.56815e-09
3.22879e-09
1.86466e-09
1.07268e-09
6.14874e-10
3.51383e-10
2.0039e-10
1.14251e-10
6.53428e-11
3.77245e-11
2.22358e-11
1.36374e-11
8.94802e-12
6.48166e-12
5.29304e-12
4.85783e-12
4.91863e-12
5435.49
-533.763
-482.567
-162.212
-10.8231
48.8802
73.5477
85.4188
91.9638
95.5689
97.0325
96.6976
94.798
91.5549
87.1981
81.9641
76.0873
69.7924
63.2865
56.7534
50.3501
44.2047
38.4162
33.0554
28.1676
23.7754
19.8817
16.4743
13.5288
11.0123
8.88638
7.10989
5.64091
4.43854
3.4641
2.68195
2.06002
1.57001
1.18738
0.891218
0.663934
0.490976
0.360439
0.262713
0.190131
0.136642
0.0975259
0.0691345
0.0486799
0.0340504
0.0236619
0.0163369
0.0112077
0.00764062
0.00517654
0.00348565
0.0023329
0.00155206
0.00102649
0.000674947
0.000441247
0.00028683
0.000185408
0.000119186
7.61981e-05
4.84523e-05
3.06455e-05
1.92809e-05
1.20678e-05
7.51439e-06
4.65537e-06
2.86969e-06
1.76021e-06
1.0744e-06
6.52634e-07
3.94546e-07
2.37398e-07
1.42178e-07
8.47591e-08
5.02998e-08
2.97163e-08
1.74782e-08
1.02353e-08
5.96801e-09
3.46512e-09
2.00357e-09
1.15383e-09
6.61925e-10
3.78391e-10
2.15661e-10
1.22668e-10
6.97641e-11
3.98112e-11
2.29479e-11
1.3525e-11
8.32233e-12
5.5158e-12
4.08158e-12
3.45496e-12
3.35269e-12
5498.96
-540.738
-507.161
-178.361
-18.5356
45.5791
72.0593
84.5418
91.2234
94.8045
96.2085
95.8255
93.9042
90.6678
86.3427
81.1599
75.3484
69.1277
62.7001
56.246
49.9193
43.8458
38.123
32.8209
27.9843
23.6355
19.7781
16.4002
13.4781
10.9797
8.86748
7.10091
5.63887
4.44109
3.46943
2.68876
2.06737
1.57728
1.19417
0.897308
0.66923
0.495466
0.364165
0.265749
0.192564
0.138563
0.0990216
0.0702848
0.0495541
0.0347075
0.0241506
0.0166967
0.0114701
0.00783022
0.00531232
0.00358206
0.00240079
0.00159948
0.00105936
0.000697555
0.000456683
0.000297293
0.00019245
0.000123893
7.9323e-05
5.05133e-05
3.1996e-05
2.01603e-05
1.26368e-05
7.88037e-06
4.88934e-06
3.01839e-06
1.85417e-06
1.13344e-06
6.89519e-07
4.17466e-07
2.51563e-07
1.50885e-07
9.00839e-08
5.35392e-08
3.1677e-08
1.8659e-08
1.09429e-08
6.38989e-09
3.7154e-09
2.15129e-09
1.24055e-09
7.1253e-10
4.07713e-10
2.32495e-10
1.32202e-10
7.50432e-11
4.26148e-11
2.43091e-11
1.40402e-11
8.33302e-12
5.21592e-12
3.58085e-12
2.81786e-12
2.6178e-12
6588.9
-295.515
-506.386
-200.066
-30.8205
40.1251
69.6427
83.3767
90.6472
94.5883
96.2641
96.1036
94.3648
91.2731
87.0566
81.9486
76.1815
69.9782
63.5452
57.0668
50.7009
44.5772
38.7967
33.4325
28.5319
24.1197
20.201
16.7654
13.7899
11.2432
9.08781
7.28335
5.78849
4.56264
3.5673
2.76685
2.12915
1.62573
1.23186
0.92638
0.69148
0.51236
0.376895
0.275268
0.199629
0.143769
0.102829
0.0730503
0.0515486
0.036136
0.0251668
0.0174148
0.0119741
0.0081817
0.00555585
0.00374973
0.0025155
0.00167748
0.00111207
0.000732961
0.000480324
0.000312986
0.000202807
0.000130688
8.37568e-05
5.33899e-05
3.3852e-05
2.13513e-05
1.3397e-05
8.36294e-06
5.19408e-06
3.20983e-06
1.97381e-06
1.20783e-06
7.35547e-07
4.45802e-07
2.68921e-07
1.61468e-07
9.65045e-08
5.74162e-08
3.40072e-08
2.0053e-08
1.1773e-08
6.88196e-09
4.00576e-09
2.32185e-09
1.34027e-09
7.70563e-10
4.41312e-10
2.51835e-10
1.43256e-10
8.13e-11
4.61033e-11
2.62039e-11
1.50181e-11
8.78226e-12
5.35837e-12
3.54366e-12
2.67625e-12
2.41989e-12
)
;

boundaryField
{
    xmin
    {
        type            calculated;
        value           uniform 0;
    }
    xmax
    {
        type            calculated;
        value           nonuniform List<scalar> 
100
(
5765.29
-258.576
-443.087
-175.058
-26.9679
35.1095
60.9374
72.9546
79.3163
82.7648
84.2311
84.0907
82.5692
79.864
76.1745
71.7051
66.6588
61.2309
55.602
49.9334
44.3633
39.0051
33.9471
29.2534
24.9654
21.1047
17.6759
14.6697
12.0662
9.83779
7.95183
6.37293
5.06493
3.99231
3.12139
2.42099
1.863
1.42251
1.07787
0.810583
0.605045
0.448315
0.329783
0.240859
0.174675
0.125798
0.0899757
0.063919
0.045105
0.031619
0.0220209
0.0152379
0.0104774
0.00715899
0.00486137
0.00328101
0.00220106
0.0014678
0.000973062
0.00064134
0.000420283
0.000273862
0.000177456
0.000114352
7.32872e-05
4.67162e-05
2.96205e-05
1.86824e-05
1.17223e-05
7.31757e-06
4.54482e-06
2.8086e-06
1.72709e-06
1.05686e-06
6.43604e-07
3.90076e-07
2.35306e-07
1.41284e-07
8.44415e-08
5.02393e-08
2.97564e-08
1.75465e-08
1.03014e-08
6.02182e-09
3.50515e-09
2.03173e-09
1.17286e-09
6.74365e-10
3.86277e-10
2.20492e-10
1.25494e-10
7.12921e-11
4.05062e-11
2.31072e-11
1.33344e-11
7.89509e-12
4.91863e-12
3.35269e-12
2.6178e-12
2.41989e-12
)
;
    }
    ymin
    {
        type            calculated;
        value           uniform 0;
    }
    ymax
    {
        type            calculated;
        value           nonuniform List<scalar> 
100
(
6588.9
-295.515
-506.386
-200.066
-30.8205
40.1251
69.6427
83.3767
90.6472
94.5883
96.2641
96.1036
94.3648
91.2731
87.0566
81.9486
76.1815
69.9782
63.5452
57.0668
50.7009
44.5772
38.7967
33.4325
28.5319
24.1197
20.201
16.7654
13.7899
11.2432
9.08781
7.28335
5.78849
4.56264
3.5673
2.76685
2.12915
1.62573
1.23186
0.92638
0.69148
0.51236
0.376895
0.275268
0.199629
0.143769
0.102829
0.0730503
0.0515486
0.036136
0.0251668
0.0174148
0.0119741
0.0081817
0.00555585
0.00374973
0.0025155
0.00167748
0.00111207
0.000732961
0.000480324
0.000312986
0.000202807
0.000130688
8.37568e-05
5.33899e-05
3.3852e-05
2.13513e-05
1.3397e-05
8.36294e-06
5.19408e-06
3.20983e-06
1.97381e-06
1.20783e-06
7.35547e-07
4.45802e-07
2.68921e-07
1.61468e-07
9.65045e-08
5.74162e-08
3.40072e-08
2.0053e-08
1.1773e-08
6.88196e-09
4.00576e-09
2.32185e-09
1.34027e-09
7.70563e-10
4.41312e-10
2.51835e-10
1.43256e-10
8.13e-11
4.61033e-11
2.62039e-11
1.50181e-11
8.78226e-12
5.35837e-12
3.54366e-12
2.67625e-12
2.41989e-12
)
;
    }
    frontAndBack
    {
        type            empty;
    }
}


// ************************************************************************* //
